#Wave		#Intensity
1.699584	315.627960
1.699649	420.837280
1.699714	325.136169
1.699779	262.932281
1.699844	358.481995
1.699908	339.304230
1.699973	296.242584
1.700038	410.846069
1.700103	291.363647
1.700168	405.928314
1.700233	401.083313
1.700298	381.918060
1.700363	448.676117
1.700428	310.201111
1.700493	443.749481
1.700558	343.488617
1.700623	333.889526
1.700688	324.293762
1.700753	395.760742
1.700818	400.459717
1.700883	328.892212
1.700948	357.429749
1.701013	400.252167
1.701078	466.880188
1.701143	300.085419
1.701208	423.856934
1.701273	338.074646
1.701338	428.471313
1.701403	433.157288
1.701468	418.805054
1.701534	318.807861
1.701599	385.357880
1.701664	313.941101
1.701729	389.980682
1.701794	347.117981
1.701859	446.896698
1.701925	375.518555
1.701990	403.969238
1.702055	399.147736
1.702120	389.576996
1.702186	403.760132
1.702251	403.690460
1.702316	332.393616
1.702381	417.794159
1.702447	474.684174
1.702512	393.919922
1.702577	403.342377
1.702643	412.761566
1.702708	422.177521
1.702773	289.307739
1.702839	407.806152
1.702904	379.289154
1.702969	421.886414
1.703035	393.376801
1.703100	445.434296
1.703166	317.435669
1.703231	374.225311
1.703297	350.479736
1.703362	369.360931
1.703427	336.155212
1.703493	444.973877
1.703558	411.766571
1.703624	392.767090
1.703689	430.549957
1.703755	397.362274
1.703820	411.482880
1.703886	411.412018
1.703952	439.709503
1.704017	401.815826
1.704083	401.746643
1.704148	467.836090
1.704214	368.534668
1.704280	434.607086
1.704345	462.871338
1.704411	415.568024
1.704476	406.053375
1.704542	410.704224
1.704608	415.353455
1.704674	410.562866
1.704739	443.520325
1.704805	400.986603
1.704871	466.951111
1.704936	377.269318
1.705002	353.629120
1.705068	362.996796
1.705134	386.501526
1.705199	405.285522
1.705265	424.063080
1.705331	452.256165
1.705397	381.525513
1.705463	353.203613
1.705528	362.560028
1.705594	461.360718
1.705660	428.332733
1.705726	371.785370
1.705792	461.122833
1.705858	399.884735
1.705924	404.519714
1.705989	432.667664
1.706056	409.082794
1.706121	371.402161
1.706187	423.043671
1.706253	338.376801
1.706319	404.102844
1.706385	455.712128
1.706451	394.569519
1.706517	417.984009
1.706583	431.999146
1.706649	403.755920
1.706715	464.708984
1.706781	375.457916
1.706847	422.317657
1.706913	450.394806
1.706980	422.172638
1.707046	342.370148
1.707112	464.230499
1.707178	431.332062
1.707244	459.383575
1.707310	492.112213
1.707376	351.448395
1.707443	482.572968
1.707509	435.646484
1.707575	501.141663
1.707641	482.324646
1.707707	477.559937
1.707773	496.202637
1.707840	444.633636
1.707906	407.120972
1.707972	425.766144
1.708038	449.082855
1.708105	402.234406
1.708171	374.107391
1.708237	467.554047
1.708303	430.075989
1.708370	392.610748
1.708436	467.313629
1.708503	397.148499
1.708569	471.824982
1.708635	387.670898
1.708702	378.264587
1.708768	462.244171
1.708834	424.818298
1.708901	476.088379
1.708967	518.007446
1.709034	410.602203
1.709100	494.504272
1.709167	485.090912
1.709233	429.045380
1.709299	410.320953
1.709366	480.179749
1.709432	438.147247
1.709499	466.034302
1.709566	428.678131
1.709632	447.239716
1.709699	479.768799
1.709765	470.372375
1.709832	442.353729
1.709898	479.522461
1.709965	474.785645
1.710032	446.780579
1.710098	442.050964
1.710165	535.022766
1.710231	507.021759
1.710298	497.633453
1.710365	432.448517
1.710431	469.568054
1.710498	497.378082
1.710565	492.645416
1.710631	446.093109
1.710698	501.768921
1.710765	524.909180
1.710832	445.864288
1.710898	496.867920
1.710965	492.140137
1.711032	380.647095
1.711099	505.895599
1.711165	445.483246
1.711232	450.046753
1.711299	468.525299
1.711366	519.463989
1.711433	491.551544
1.711500	551.741821
1.711566	482.112152
1.711633	482.029785
1.711700	430.972198
1.711767	467.965118
1.711834	449.355072
1.711901	430.751373
1.711968	509.403839
1.712035	518.577148
1.712102	486.083008
1.712169	532.285706
1.712236	509.055908
1.712303	434.937134
1.712370	490.377258
1.712437	485.668121
1.712504	448.588257
1.712571	439.264008
1.712638	411.450775
1.712705	462.225311
1.712772	508.361053
1.712839	512.894958
1.712906	425.029572
1.712973	485.005341
1.713040	535.723999
1.713107	503.309906
1.713175	429.356293
1.713242	507.754120
1.713309	484.591705
1.713376	493.737793
1.713443	544.403015
1.713511	502.794983
1.713578	534.993286
1.713645	484.178589
1.713712	631.630066
1.713779	520.890686
1.713847	433.233398
1.713914	493.064575
1.713981	474.551331
1.714048	529.748535
1.714116	566.504028
1.714183	492.728455
1.714250	465.019562
1.714318	432.716705
1.714385	529.297241
1.714453	566.021423
1.714520	492.308746
1.714587	533.626953
1.714655	620.925537
1.714722	473.662476
1.714789	496.571198
1.714857	542.457581
1.714924	473.420441
1.714992	514.699585
1.715059	505.422455
1.715127	532.900146
1.715194	578.741272
1.715262	560.273132
1.715329	509.669891
1.715397	537.128113
1.715464	569.167114
1.715532	550.713074
1.715599	477.203430
1.715667	532.174744
1.715734	454.106323
1.715802	472.373657
1.715870	554.829956
1.715937	522.643372
1.716005	449.213470
1.716073	513.299438
1.716140	504.047638
1.716208	513.124817
1.716275	531.360291
1.716343	540.429749
1.716411	526.600403
1.716478	581.451050
1.716546	544.731567
1.716614	544.638916
1.716682	535.394287
1.716749	526.152710
1.716817	521.488831
1.716885	562.563293
1.716953	535.030212
1.717021	534.939270
1.717088	525.705627
1.717156	607.886597
1.717224	516.387329
1.717292	593.972900
1.717360	607.576721
1.717427	511.556580
1.717495	653.037170
1.717563	561.607849
1.717631	515.861023
1.717699	529.466431
1.717767	570.448792
1.717835	479.095581
1.717903	533.758667
1.717971	519.984253
1.718039	592.863770
1.718107	556.285339
1.718175	528.837219
1.718243	478.607574
1.718311	514.985413
1.718379	555.907593
1.718447	574.036560
1.718515	555.718811
1.718583	587.504578
1.718651	687.582397
1.718719	532.672058
1.718787	518.925720
1.718855	587.105774
1.718923	587.006104
1.718992	559.608521
1.719060	614.100220
1.719128	591.255432
1.719196	550.229004
1.719264	577.415100
1.719332	568.225525
1.719401	554.494019
1.719469	568.032776
1.719537	540.675476
1.719605	586.010925
1.719674	604.079346
1.719742	613.059265
1.719810	585.712830
1.719878	649.168457
1.719947	635.441772
1.720015	585.414978
1.720083	585.315674
1.720152	612.435852
1.720220	680.368896
1.720288	589.553101
1.720357	553.179138
1.720425	612.020691
1.720493	598.318787
1.720562	657.132751
1.720630	593.584839
1.720699	570.832214
1.720767	616.031921
1.720835	534.407715
1.720904	611.295105
1.720972	597.609497
1.721041	651.827209
1.721109	552.148926
1.721178	633.506226
1.721246	547.437622
1.721315	606.150574
1.721383	660.320862
1.721452	651.165100
1.721520	664.618469
1.721589	551.494690
1.721658	583.039124
1.721726	533.232300
1.721795	569.287231
1.721864	614.364746
1.721932	605.227539
1.722001	650.283630
1.722069	559.871704
1.722138	645.549255
1.722207	600.304321
1.722275	586.664307
1.722344	604.613220
1.722413	703.758972
1.722481	667.555786
1.722550	595.286865
1.722619	577.150208
1.722688	545.494995
1.722756	608.507202
1.722825	612.910950
1.722894	666.878540
1.722963	590.177795
1.723032	608.095642
1.723101	621.503723
1.723169	693.444885
1.723238	562.765930
1.723307	639.193970
1.723376	634.585327
1.723445	643.477722
1.723514	629.871704
1.723583	647.758545
1.723651	629.658813
1.723720	679.017212
1.723789	669.910339
1.723858	642.825439
1.723927	669.683960
1.723996	611.151855
1.724065	696.415649
1.724134	570.515137
1.724203	619.825073
1.724272	705.044189
1.724341	673.495300
1.724410	606.043396
1.724479	610.429443
1.724549	637.252563
1.724618	668.553467
1.724687	632.551147
1.724756	695.240173
1.724825	627.852844
1.724894	641.198547
1.724963	627.640808
1.725032	658.911621
1.725101	658.800354
1.725171	618.361267
1.725240	672.018311
1.725309	689.822327
1.725378	671.791504
1.725447	577.643188
1.725517	644.702148
1.725586	640.117004
1.725655	680.289246
1.725724	635.426147
1.725794	662.163391
1.725863	738.098145
1.725932	711.138245
1.726002	706.546448
1.726071	701.956177
1.726140	719.718994
1.726210	737.475830
1.726279	697.132263
1.726348	647.866211
1.726418	714.766296
1.726487	719.112305
1.726557	652.004272
1.726626	714.404785
1.726696	736.605713
1.726765	772.189697
1.726834	682.804077
1.726904	638.068787
1.726973	678.112610
1.727043	704.761414
1.727112	718.021912
1.727182	731.277954
1.727251	677.655579
1.727321	708.743958
1.727390	623.946106
1.727460	744.153137
1.727530	712.840942
1.727599	672.630310
1.727669	708.147034
1.727738	676.856689
1.727808	725.717468
1.727878	676.628662
1.727947	778.882080
1.728017	689.750793
1.728087	667.388306
1.728156	658.378906
1.728226	742.775452
1.728296	729.309326
1.728365	689.170166
1.728435	693.499695
1.728505	733.385742
1.728575	573.277771
1.728644	719.809082
1.728714	688.590271
1.728784	728.450256
1.728854	732.768677
1.728923	763.727295
1.728993	723.643005
1.729063	719.082397
1.729133	723.399475
1.729203	736.589600
1.729273	789.704102
1.729343	705.291199
1.729412	749.522949
1.729482	722.791077
1.729552	758.137939
1.729622	647.190125
1.729692	700.266052
1.729762	757.755432
1.729832	731.044495
1.729902	766.360168
1.729972	708.653259
1.730042	748.389099
1.730112	752.690857
1.730182	756.991150
1.730252	712.602783
1.730322	699.206909
1.730392	747.760132
1.730462	716.667358
1.730532	805.009460
1.730602	756.227905
1.730672	747.257507
1.730743	702.922913
1.730813	822.148987
1.730883	742.461365
1.730953	795.360657
1.731023	702.450500
1.731093	715.584045
1.731164	794.959778
1.731234	728.590698
1.731304	697.563599
1.731374	776.902283
1.731444	754.704407
1.731515	781.054077
1.731585	829.454773
1.731655	727.856689
1.731725	789.481567
1.731796	758.480591
1.731866	789.216431
1.731936	696.509827
1.732007	802.174072
1.732077	775.598511
1.732147	744.625793
1.732218	722.474121
1.732288	766.398743
1.732358	753.058533
1.732429	818.978821
1.732499	726.391541
1.732570	814.302246
1.732640	734.949463
1.732710	822.829285
1.732781	752.300476
1.732851	730.180847
1.732922	734.456299
1.732992	778.305054
1.733063	782.570984
1.733133	764.856750
1.733204	707.593567
1.733274	799.754150
1.733345	830.374634
1.733416	795.093079
1.733486	869.624451
1.733557	794.826416
1.733627	886.895081
1.733698	759.441162
1.733769	732.979248
1.733839	846.953735
1.733910	829.261169
1.733980	824.735291
1.734051	815.824707
1.734122	745.521179
1.734193	925.168274
1.734263	793.494690
1.734334	749.529541
1.734405	850.200928
1.734475	771.187012
1.734546	797.343811
1.734617	757.787720
1.734688	783.937988
1.734758	818.837097
1.734829	774.919128
1.734900	849.204041
1.734971	862.191589
1.735042	813.912537
1.735113	879.403320
1.735183	796.142212
1.735254	835.371948
1.735325	861.469666
1.735396	826.347656
1.735467	887.409973
1.735538	738.656006
1.735609	917.702820
1.735680	886.964172
1.735751	869.341431
1.735822	921.609741
1.735893	821.012390
1.735964	794.676819
1.736035	790.178101
1.736106	816.235229
1.736177	859.740173
1.736248	855.232849
1.736319	885.628601
1.736390	789.516968
1.736461	806.829773
1.736532	867.741943
1.736603	789.120605
1.736674	775.911438
1.736745	954.472839
1.736817	862.803650
1.736888	853.945557
1.736959	923.500854
1.737030	884.147705
1.737101	823.034241
1.737172	857.728210
1.737244	914.176575
1.737315	783.448853
1.737386	887.760193
1.737457	835.399231
1.737528	874.412354
1.737600	856.867737
1.737671	900.213013
1.737742	821.796204
1.737814	895.564575
1.737885	904.108154
1.737956	856.151611
1.738028	873.389343
1.738099	799.386902
1.738170	851.378479
1.738242	899.009644
1.738313	855.436218
1.738384	911.733887
1.738456	876.854614
1.738527	946.150269
1.738599	872.222107
1.738670	902.447144
1.738742	893.620422
1.738813	889.133850
1.738885	888.985291
1.738956	927.858887
1.739028	880.018127
1.739099	905.877197
1.739171	884.057739
1.739242	844.914063
1.739314	927.084106
1.739385	918.266357
1.739457	996.065979
1.739528	926.619629
1.739600	1013.050415
1.739672	883.024658
1.739743	891.532837
1.739815	960.617676
1.739887	917.193420
1.739958	930.017273
1.740030	869.312866
1.740101	947.003662
1.740173	1003.050964
1.740245	981.269653
1.740317	968.139709
1.740388	946.371460
1.740460	915.969238
1.740532	1028.133423
1.740604	971.812683
1.740675	1006.198059
1.740747	954.217407
1.740819	941.107178
1.740891	1044.541016
1.740963	988.264343
1.741034	901.802551
1.741106	966.364014
1.741178	992.083191
1.741250	996.230408
1.741322	974.504333
1.741394	935.540588
1.741466	918.142395
1.741538	986.946228
1.741610	900.599792
1.741681	999.542175
1.741753	964.914246
1.741825	969.060242
1.741897	973.204895
1.741969	934.293152
1.742041	1020.232971
1.742113	925.373474
1.742185	959.645935
1.742257	980.999084
1.742329	1041.062256
1.742401	843.033875
1.742474	1002.010986
1.742546	1057.740845
1.742618	993.078857
1.742690	1010.106689
1.742762	928.283752
1.742834	1061.332764
1.742906	1082.636719
1.742978	1030.910889
1.743051	1043.623291
1.743123	1077.801636
1.743195	996.049072
1.743267	991.590515
1.743340	961.382141
1.743412	926.892639
1.743484	999.675964
1.743556	1016.668396
1.743629	1089.412476
1.743701	1076.366089
1.743773	943.271362
1.743845	998.843689
1.743918	964.388000
1.743990	1054.221924
1.744062	1066.900635
1.744135	963.906311
1.744207	972.312439
1.744280	1019.259216
1.744352	1074.754028
1.744424	1070.293945
1.744497	1048.713501
1.744569	1052.818604
1.744642	1022.690125
1.744714	1018.241577
1.744786	1069.403442
1.744859	1017.902649
1.744931	1047.666504
1.745004	1000.461975
1.745076	1124.263672
1.745149	1008.677124
1.745221	987.142578
1.745294	1016.886719
1.745367	999.629822
1.745439	1008.005981
1.745512	956.592224
1.745584	1007.670593
1.745657	1058.731934
1.745729	1084.166016
1.745802	1101.056396
1.745875	1079.538452
1.745947	1117.755127
1.746020	1109.038086
1.746093	1198.414917
1.746166	1151.310425
1.746238	1087.167847
1.746311	1146.664795
1.746384	1112.378296
1.746456	1112.193359
1.746529	1052.360474
1.746602	1171.461548
1.746675	1158.489380
1.746747	1128.487671
1.746820	1051.660889
1.746893	1174.939819
1.746966	1085.361816
1.747039	1144.760010
1.747112	1063.726563
1.747184	1063.549683
1.747257	1127.175415
1.747330	1084.460205
1.747403	1088.532104
1.747476	1054.340210
1.747549	1139.178345
1.747622	1160.238892
1.747695	1100.556519
1.747768	1138.610596
1.747841	1095.943115
1.747914	1167.962280
1.747987	1065.854004
1.748060	1116.625610
1.748133	1167.380371
1.748206	1192.652344
1.748279	1200.941528
1.748352	1158.312988
1.748425	1166.605103
1.748498	1149.445313
1.748571	1170.458374
1.748644	1216.905029
1.748717	1098.000244
1.748791	1097.817993
1.748864	1199.347046
1.748937	1173.724365
1.749010	1148.110107
1.749083	1194.514038
1.749156	1075.731201
1.749229	1189.883057
1.749303	1134.646729
1.749376	1244.517700
1.749449	1235.846558
1.749522	1189.093262
1.749596	1188.895874
1.749669	1070.251831
1.749742	1158.894531
1.749816	1158.702271
1.749889	1120.456787
1.749962	1175.227539
1.750035	1111.631592
1.750109	1162.159546
1.750182	1199.994751
1.750256	1149.100098
1.750329	1216.492310
1.750402	1060.031006
1.750476	1199.198730
1.750549	1118.785034
1.750623	1219.906616
1.750696	1215.483887
1.750769	1240.600708
1.750843	1147.576294
1.750916	1206.442627
1.750990	1214.677856
1.751063	1159.656250
1.751137	1226.923706
1.751211	1201.427124
1.751284	1209.657593
1.751358	1201.028809
1.751431	1162.908691
1.751505	1175.354126
1.751578	1250.976074
1.751652	1217.078003
1.751725	1225.297607
1.751799	1250.354126
1.751873	1208.054443
1.751946	1262.565430
1.752020	1308.642578
1.752094	1178.003784
1.752167	1270.350708
1.752241	1282.757568
1.752315	1278.339966
1.752389	1278.128174
1.752462	1298.934692
1.752536	1323.937378
1.752610	1176.638306
1.752684	1163.838623
1.752757	1205.654663
1.752831	1247.456909
1.752905	1234.651733
1.752979	1331.019653
1.753053	1251.035278
1.753127	1204.656616
1.753200	1317.768311
1.753274	1275.589966
1.753348	1250.206787
1.753422	1241.610474
1.753496	1274.956421
1.753570	1320.870972
1.753644	1333.229858
1.753718	1236.596558
1.753792	1286.685669
1.753866	1294.853638
1.753940	1256.931396
1.754014	1294.424927
1.754088	1310.964233
1.754162	1302.371826
1.754236	1335.652344
1.754310	1293.568237
1.754384	1293.354126
1.754458	1351.728882
1.754532	1292.926025
1.754606	1275.978027
1.754680	1271.583984
1.754754	1271.373657
1.754828	1367.336792
1.754902	1254.229858
1.754977	1400.324951
1.755051	1308.146851
1.755125	1370.610840
1.755199	1320.248047
1.755273	1324.207031
1.755347	1382.460571
1.755422	1394.759766
1.755496	1386.178589
1.755570	1390.123901
1.755645	1331.459961
1.755719	1385.490967
1.755793	1343.537109
1.755867	1347.486694
1.755942	1422.343628
1.756016	1326.189087
1.756090	1446.891602
1.756165	1242.369995
1.756239	1329.699707
1.756314	1362.821045
1.756388	1408.432251
1.756462	1404.033203
1.756537	1357.979736
1.756611	1332.765869
1.756685	1315.888794
1.756760	1332.325317
1.756834	1352.919312
1.756909	1315.236450
1.756983	1398.248047
1.757058	1431.303101
1.757132	1410.266235
1.757207	1401.714478
1.757281	1347.419678
1.757356	1392.935181
1.757431	1305.401123
1.757505	1334.281982
1.757580	1437.960449
1.757654	1416.946533
1.757729	1350.239136
1.757804	1374.939453
1.757878	1324.873779
1.757953	1411.857910
1.758028	1453.143188
1.758102	1440.449707
1.758177	1448.512695
1.758252	1282.282227
1.758326	1381.648804
1.758401	1348.233276
1.758476	1480.737915
1.758550	1389.258423
1.758625	1476.102539
1.758700	1475.858765
1.758775	1438.310303
1.758850	1375.908325
1.758924	1446.122559
1.758999	1470.741455
1.759074	1449.787476
1.759149	1449.548096
1.759224	1449.308838
1.759298	1527.733398
1.759373	1523.341675
1.759448	1469.285522
1.759523	1518.700806
1.759598	1419.150879
1.759673	1584.388062
1.759748	1414.546509
1.759823	1517.698486
1.759898	1455.427002
1.759973	1430.382568
1.760048	1446.680054
1.760123	1516.697021
1.760198	1483.390747
1.760273	1433.570068
1.760348	1515.946533
1.760423	1556.996094
1.760498	1511.317139
1.760573	1465.653198
1.760648	1498.434814
1.760723	1432.151855
1.760798	1452.548340
1.760874	1460.560547
1.760949	1497.446411
1.761024	1620.935059
1.761099	1509.324097
1.761174	1525.567871
1.761249	1348.049805
1.761325	1479.724976
1.761400	1533.055542
1.761475	1553.404907
1.761550	1441.915405
1.761626	1507.582886
1.761701	1552.636719
1.761776	1556.498535
1.761851	1589.178223
1.761927	1531.287231
1.762002	1633.926880
1.762077	1576.047485
1.762153	1477.043823
1.762228	1509.709595
1.762303	1616.398071
1.762379	1554.447266
1.762454	1582.972412
1.762529	1533.380249
1.762605	1508.466064
1.762680	1524.655762
1.762756	1380.592896
1.762831	1548.802856
1.762907	1585.515625
1.762982	1593.468140
1.763058	1601.417969
1.763133	1605.259644
1.763209	1625.519531
1.763284	1506.230713
1.763360	1563.431519
1.763435	1698.567017
1.763511	1677.776611
1.763586	1636.485596
1.763662	1648.518433
1.763738	1594.945435
1.763813	1705.367676
1.763889	1639.506470
1.763964	1622.844116
1.764040	1696.330444
1.764116	1634.599976
1.764191	1581.081909
1.764267	1691.397217
1.764343	1609.224365
1.764419	1723.592651
1.764494	1612.787964
1.764570	1575.688110
1.764646	1751.385742
1.764722	1599.717529
1.764797	1607.635498
1.764873	1697.350952
1.764949	1664.356934
1.765025	1623.196411
1.765100	1696.512939
1.765176	1679.884521
1.765252	1716.387817
1.765328	1646.643921
1.765404	1630.031738
1.765480	1637.932739
1.765556	1694.838501
1.765632	1649.643555
1.765708	1624.876587
1.765783	1718.493652
1.765859	1669.235718
1.765935	1611.832886
1.766011	1725.805420
1.766087	1709.204590
1.766163	1810.887817
1.766239	1855.446777
1.766315	1712.438477
1.766391	1748.845825
1.766467	1732.254639
1.766544	1711.593628
1.766620	1695.013916
1.766696	1641.774658
1.766772	1657.797485
1.766848	1791.918701
1.766924	1803.839722
1.767000	1905.323120
1.767076	1734.047485
1.767152	1705.273193
1.767229	1733.477295
1.767305	1757.603394
1.767381	1753.246582
1.767457	1732.622314
1.767533	1773.002686
1.767610	1788.974609
1.767686	1772.419800
1.767762	1788.386597
1.767838	1857.177979
1.767915	1767.482788
1.767991	1685.942017
1.768067	1742.530762
1.768144	1782.856079
1.768220	1697.292480
1.768296	1818.808716
1.768373	1781.977295
1.768449	1781.684448
1.768525	1679.945679
1.768602	1821.670654
1.768678	1841.653931
1.768755	1812.960449
1.768831	1780.221191
1.768908	1901.563843
1.768984	1832.336182
1.769060	1787.450195
1.769137	1916.836914
1.769214	1863.848022
1.769290	1924.309570
1.769367	1842.983154
1.769443	1794.082275
1.769520	1866.672974
1.769596	1902.802979
1.769673	1777.007080
1.769749	1796.951172
1.769826	1926.144775
1.769903	1763.994141
1.769979	1961.918945
1.770056	1896.884277
1.770132	1888.485107
1.770209	1944.779785
1.770286	1944.460449
1.770362	1968.392456
1.770439	1838.750610
1.770516	1895.016357
1.770593	1749.269409
1.770669	1946.904053
1.770746	1837.543457
1.770823	1877.620728
1.770900	1861.163574
1.770976	2030.393921
1.771053	1844.409058
1.771130	1924.811157
1.771207	2009.221436
1.771284	1968.552490
1.771361	2020.661743
1.771437	1947.743408
1.771514	1890.976685
1.771591	1926.947876
1.771668	1958.876587
1.771745	1934.375488
1.771822	1954.204468
1.771899	1897.483032
1.771976	1917.311523
1.772053	1896.860474
1.772130	1952.922241
1.772207	1912.342041
1.772284	1932.154907
1.772361	1960.010620
1.772438	1959.689087
1.772515	2072.021240
1.772592	1854.456543
1.772669	1922.526733
1.772746	2002.638672
1.772823	2038.496582
1.772900	1953.741333
1.772977	1993.614746
1.773054	1945.063110
1.773132	2045.195679
1.773209	1988.616699
1.773286	1988.290527
1.773363	2020.093262
1.773440	2031.808350
1.773517	2035.489990
1.773595	2091.353760
1.773672	2022.782104
1.773749	2118.757813
1.773826	2078.288818
1.773904	2126.085938
1.773981	1969.315308
1.774058	2137.419434
1.774136	2028.812378
1.774213	2076.585938
1.774290	2144.385010
1.774368	2148.041016
1.774445	1991.420654
1.774522	1983.081787
1.774600	2142.979492
1.774677	2042.505493
1.774755	2130.264404
1.774832	2089.879395
1.774909	2101.545654
1.774987	2101.201416
1.775064	2100.856934
1.775142	2112.515625
1.775219	2084.167236
1.775297	2079.826172
1.775374	2163.464600
1.775452	2175.105225
1.775529	2078.804199
1.775607	2130.425293
1.775684	2186.025635
1.775762	2125.731445
1.775840	2073.447266
1.775917	2077.102051
1.775995	2204.562500
1.776072	2200.208252
1.776150	2243.765137
1.776228	2139.610596
1.776305	2163.207031
1.776383	2218.719727
1.776461	2274.214355
1.776538	2253.895996
1.776616	2145.836182
1.776694	2137.509033
1.776772	2296.648682
1.776849	2252.420166
1.776927	2275.966797
1.777005	2183.932861
1.777083	2299.129395
1.777161	2242.977295
1.777238	2326.260010
1.777316	2138.693604
1.777394	2194.091797
1.777472	2281.322754
1.777550	2245.122803
1.777628	2268.635742
1.777706	2180.717285
1.777783	2247.999268
1.777861	2267.521973
1.777939	2191.579102
1.778017	2223.034912
1.778095	2337.979492
1.778173	2309.768311
1.778251	2388.887451
1.778329	2293.115723
1.778407	2352.343750
1.778485	2228.798828
1.778563	2288.017822
1.778641	2363.104004
1.778719	2311.094971
1.778797	2290.865234
1.778875	2266.672607
1.778953	2357.588867
1.779032	2321.488037
1.779110	2333.011230
1.779188	2396.102539
1.779266	2427.441895
1.779344	2427.044922
1.779422	2220.462158
1.779500	2307.317139
1.779579	2406.034912
1.779657	2405.641602
1.779735	2444.873291
1.779813	2373.159668
1.779892	2321.275635
1.779970	2388.225830
1.780048	2300.717041
1.780126	2324.096436
1.780205	2371.219971
1.780283	2465.823730
1.780361	2433.761963
1.780440	2366.100342
1.780518	2448.790283
1.780596	2456.300781
1.780675	2487.537109
1.780753	2467.359863
1.780832	2419.515137
1.780910	2419.119385
1.780988	2406.867432
1.781067	2580.340820
1.781145	2508.803467
1.781224	2595.298340
1.781302	2428.991699
1.781381	2444.390381
1.781459	2400.559814
1.781538	2455.434326
1.781616	2458.979980
1.781695	2521.719727
1.781773	2458.176270
1.781852	2520.895752
1.781931	2540.205811
1.782009	2563.453369
1.782088	2515.717041
1.782166	2692.717773
1.782245	2503.069336
1.782324	2553.895996
1.782402	2537.716553
1.782481	2462.443604
1.782560	2635.368896
1.782638	2410.437012
1.782717	2532.120361
1.782796	2598.641602
1.782875	2511.609863
1.782953	2570.240234
1.783032	2518.660156
1.783111	2624.487305
1.783190	2506.034912
1.783268	2493.825195
1.783347	2635.000000
1.783426	2669.959473
1.783505	2598.755371
1.783584	2566.883789
1.783663	2570.394775
1.783742	2699.652588
1.783820	2569.555420
1.783899	2702.699463
1.783978	2619.776367
1.784057	2646.837891
1.784136	2638.552979
1.784215	2610.641602
1.784294	2712.269043
1.784373	2586.242188
1.784452	2621.134766
1.784531	2632.476563
1.784610	2781.104492
1.784689	2698.289795
1.784768	2717.455811
1.784847	2615.075195
1.784926	2783.208984
1.785005	2688.689697
1.785084	2629.469727
1.785164	2734.829102
1.785243	2667.786133
1.785322	2667.350586
1.785401	2831.394531
1.785480	2799.608154
1.785559	2681.704346
1.785638	2751.723389
1.785718	2829.546875
1.785797	2594.306152
1.785876	2805.149414
1.785955	2726.457520
1.786035	2819.878174
1.786114	2741.209473
1.786193	2725.123047
1.786273	2677.768555
1.786352	2767.227539
1.786431	2684.710693
1.786510	2836.655029
1.786590	2816.659180
1.786669	2906.036865
1.786748	2835.266846
1.786828	2678.616943
1.786907	2799.205566
1.786987	2872.913818
1.787066	2821.708984
1.787146	2832.955322
1.787225	2867.606689
1.787304	2851.535645
1.787384	2897.873291
1.787463	2784.312256
1.787543	2939.816650
1.787622	2888.658936
1.787702	2888.187988
1.787781	2922.790527
1.787861	2895.038818
1.787941	2953.003662
1.788020	2987.578369
1.788100	2959.829590
1.788179	2990.498047
1.788259	3017.263184
1.788339	2950.596924
1.788418	2802.220703
1.788498	2934.069580
1.788578	2956.935303
1.788657	3034.254639
1.788737	2827.619873
1.788817	2904.935059
1.788896	2982.224854
1.788976	3075.039551
1.789056	2973.479004
1.789136	2972.994141
1.789215	3007.480225
1.789295	3010.875244
1.789375	3091.956055
1.789455	2986.591309
1.789535	2958.922852
1.789614	3102.092041
1.789694	3058.886230
1.789774	3023.457031
1.789854	3050.128174
1.789934	3014.711670
1.790014	3111.203125
1.790094	3040.880127
1.790174	3067.530762
1.790254	2997.237549
1.790334	3120.806152
1.790413	3077.660156
1.790493	3073.283203
1.790573	3076.657227
1.790653	3014.167969
1.790734	3087.275879
1.790814	3175.851563
1.790894	3082.397705
1.790974	3050.921631
1.791054	3077.522461
1.791134	3305.378662
1.791214	3146.177002
1.791294	3126.318359
1.791374	3284.420898
1.791454	3198.791016
1.791534	3109.321777
1.791615	3244.149414
1.791695	3065.782471
1.791775	3181.245850
1.791855	3288.942139
1.791935	3187.938232
1.792016	3210.600342
1.792096	3179.174072
1.792176	3221.141602
1.792256	3158.830566
1.792337	3393.838623
1.792417	3343.100830
1.792497	3230.623291
1.792578	3372.885498
1.792658	3144.684326
1.792738	3275.340332
1.792819	3240.091797
1.792899	3108.438965
1.792979	3285.308838
1.793060	3319.472412
1.793140	3291.948730
1.793221	3279.850586
1.793301	3391.067627
1.793381	3402.074219
1.793462	3285.953613
1.793542	3285.418701
1.793623	3404.264404
1.793703	3284.349365
1.793784	3407.005859
1.793864	3429.546143
1.793945	3425.139404
1.794026	3332.233643
1.794106	3508.663574
1.794187	3365.768555
1.794267	3342.145020
1.794348	3580.012451
1.794428	3441.020020
1.794509	3371.266602
1.794590	3585.951904
1.794670	3431.655029
1.794751	3415.727783
1.794832	3342.181885
1.794912	3318.592285
1.794993	3567.674316
1.795074	3398.146484
1.795155	3505.088135
1.795235	3504.517822
1.795316	3480.920654
1.795397	3422.796143
1.795478	3560.356689
1.795559	3456.206543
1.795639	3451.808838
1.795720	3581.627930
1.795801	3596.381592
1.795882	3680.133057
1.795963	3541.552002
1.796044	3636.781738
1.796125	3475.262939
1.796205	3635.598877
1.796286	3692.462891
1.796367	3592.289307
1.796448	3576.388672
1.796529	3610.263428
1.796610	3667.094238
1.796691	3563.162354
1.796772	3765.393799
1.796853	3493.135742
1.796934	3672.360352
1.797015	3732.959473
1.797096	3629.100830
1.797177	3582.628662
1.797258	3601.160645
1.797340	3784.043945
1.797421	3695.531006
1.797502	3626.151611
1.797583	3724.892578
1.797664	3766.304688
1.797745	3826.799072
1.797826	3768.898926
1.797908	3672.838135
1.797989	3798.211914
1.798070	3744.161133
1.798151	3816.057617
1.798232	3720.051514
1.798314	3807.187500
1.798395	3898.109619
1.798476	3664.847900
1.798558	3786.266846
1.798639	3850.461182
1.798720	3735.483887
1.798802	3803.476563
1.798883	3848.584229
1.798964	3828.909424
1.799046	3866.379639
1.799127	3804.813477
1.799208	3800.387207
1.799290	3792.155029
1.799371	3989.490479
1.799453	3794.728760
1.799534	3885.444824
1.799616	3797.300781
1.799697	3846.139648
1.799778	3894.962402
1.799860	3920.950928
1.799942	3886.092041
1.800023	3893.064453
1.800105	4215.534180
1.800186	3903.201416
1.800268	3986.166504
1.800349	3932.328125
1.800431	4045.651367
1.800513	4067.782959
1.800594	3835.474854
1.800676	4062.664795
1.800757	4027.838379
1.800839	3981.636475
1.800921	4022.735107
1.801003	3900.660400
1.801084	3884.851807
1.801166	4047.327637
1.801248	4046.670410
1.801329	3992.926025
1.801411	4136.348145
1.801493	4128.095215
1.801575	4032.672119
1.801656	4096.438477
1.801738	4088.195801
1.801820	4299.674316
1.801902	4211.860352
1.801984	4165.732422
1.802066	4259.716309
1.802148	4111.378418
1.802229	4212.910645
1.802311	4208.442383
1.802393	4192.623047
1.802475	4154.108887
1.802557	4172.348145
1.802639	4353.212402
1.802721	4292.001953
1.802803	4230.811035
1.802885	4154.518555
1.802967	4244.556152
1.803049	4228.750977
1.803131	4205.394043
1.803213	4250.044922
1.803295	4256.909668
1.803377	4146.697754
1.803459	4210.216309
1.803541	4258.612793
1.803623	4205.074707
1.803706	4211.940430
1.803788	4301.821777
1.803870	4335.080078
1.803952	4262.702637
1.804034	4507.170898
1.804116	4317.885254
1.804199	4211.611816
1.804281	4361.722168
1.804363	4255.475586
1.804445	4277.396973
1.804528	4348.295410
1.804610	4513.355957
1.804692	4358.185059
1.804775	4323.582031
1.804857	4439.613281
1.804939	4371.123535
1.805022	4419.351074
1.805104	4392.288086
1.805186	4478.127441
1.805269	4330.662598
1.805351	4510.531738
1.805434	4457.142090
1.805516	4396.247559
1.805598	4564.738281
1.805681	4567.757324
1.805763	4619.640625
1.805846	4536.209473
1.805928	4606.869141
1.806011	4564.794434
1.806093	4541.515625
1.806176	4484.441406
1.806258	4585.104980
1.806341	4727.035645
1.806423	4715.007324
1.806506	4586.627441
1.806589	4645.928223
1.806671	4765.243652
1.806754	4494.359375
1.806836	4602.407715
1.806919	4826.681641
1.807002	4555.918457
1.807084	4675.151367
1.807167	4869.315918
1.807250	4662.391602
1.807333	4691.614258
1.807415	4739.560547
1.807498	4637.647949
1.807581	4681.841309
1.807664	4770.959473
1.807746	4766.441406
1.807829	4627.153809
1.807912	4690.035156
1.807995	4719.214355
1.808078	4759.609375
1.808160	4661.565918
1.808243	4866.544434
1.808326	4772.254883
1.808409	4659.299316
1.808492	4849.222656
1.808575	4807.316406
1.808658	4877.551758
1.808741	4824.443359
1.808824	4808.715820
1.808907	4834.086426
1.808990	4777.275879
1.809073	5075.266113
1.809156	4824.268555
1.809239	4928.020508
1.809322	4845.101563
1.809405	4799.530762
1.809488	4821.142090
1.809571	4939.750488
1.809654	4909.107422
1.809737	5050.041016
1.809820	5090.243164
1.809903	4865.707520
1.809987	5014.035156
1.810070	4998.313477
1.810153	5012.410645
1.810236	5074.941895
1.810319	4895.295898
1.810403	5110.546387
1.810486	5120.891113
1.810569	5060.482422
1.810652	4880.955078
1.810735	5140.737305
1.810819	5098.963867
1.810902	4945.565918
1.810985	5030.339844
1.811069	5200.647949
1.811152	5039.868652
1.811235	5020.458008
1.811319	5045.672363
1.811402	5338.549805
1.811486	5255.909668
1.811569	5388.850586
1.811652	5168.742676
1.811736	5160.475098
1.811819	5174.497559
1.811903	5288.794922
1.811986	5072.558594
1.812070	5171.983887
1.812153	5393.880371
1.812237	5251.964355
1.812320	5184.315430
1.812404	5135.240234
1.812487	5312.480469
1.812571	5389.513672
1.812654	5258.838867
1.812738	5280.235352
1.812822	5220.061523
1.812905	5185.854980
1.812989	5311.026855
1.813072	5450.980957
1.813156	5420.458008
1.813240	5286.220703
1.813323	5418.702637
1.813407	5517.812500
1.813491	5561.350586
1.813575	5330.924316
1.813658	5352.269531
1.813742	5399.514160
1.813826	5483.745117
1.813910	5604.945313
1.813993	5378.396484
1.814077	5514.368164
1.814161	5384.051270
1.814245	5416.454590
1.814329	5389.701172
1.814413	5569.934570
1.814497	5472.951660
1.814580	5420.337891
1.814664	5522.899414
1.814748	5337.322754
1.814832	5702.070801
1.814916	5616.221680
1.815000	5537.783691
1.815084	5584.873535
1.815168	5591.351074
1.815252	5627.346680
1.815336	5678.088379
1.815420	5507.481445
1.815504	5595.108398
1.815588	5594.203125
1.815672	5810.835449
1.815756	5651.375977
1.815840	5746.294434
1.815925	5546.358887
1.816009	5854.975586
1.816093	5688.243652
1.816177	5687.323242
1.816261	5815.304688
1.816345	5770.175781
1.816429	5783.969238
1.816514	5536.398438
1.816598	5793.139160
1.816682	5770.122070
1.816766	5850.133789
1.816851	5613.748047
1.816935	5837.206543
1.817019	5810.519043
1.817104	5982.395508
1.817188	5948.340820
1.817272	5844.457031
1.817356	5781.033691
1.817441	5912.382813
1.817525	5940.818359
1.817610	5866.389648
1.817694	5953.587402
1.817778	5985.673828
1.817863	5914.945313
1.817947	5961.711426
1.818032	5916.702148
1.818116	5908.405762
1.818201	5936.803711
1.818285	5844.127441
1.818370	5865.190430
1.818454	5860.574707
1.818539	5833.958496
1.818623	6005.329102
1.818708	6000.691895
1.818792	5999.721680
1.818877	6101.356445
1.818961	6100.369629
1.819046	6066.413574
1.819131	6010.492188
1.819215	6156.004395
1.819300	5982.917480
1.819385	5996.593750
1.819469	6068.830566
1.819554	6188.620605
1.819639	6253.484375
1.819723	6234.180664
1.819808	6042.958008
1.819893	6045.638184
1.819978	6234.813477
1.820063	6080.245117
1.820147	6225.486328
1.820232	6049.039063
1.820317	6212.509766
1.820402	6244.389648
1.820487	6188.581543
1.820571	6238.718262
1.820656	6325.358887
1.820741	6331.639160
1.820826	6202.834961
1.820911	6344.192871
1.820996	6153.383301
1.821081	6422.422363
1.821166	6505.299805
1.821251	6398.458496
1.821336	6328.124512
1.821421	6425.563965
1.821506	6347.956055
1.821591	6500.043457
1.821676	6287.583984
1.821761	6516.164063
1.821846	6354.783691
1.821931	6357.399902
1.822016	6374.585449
1.822101	6180.527344
1.822186	6448.995117
1.822272	6513.488281
1.822357	6468.751953
1.822442	6373.075195
1.822527	6390.240234
1.822612	6487.447266
1.822697	6417.278320
1.822783	6456.251953
1.822868	6593.404297
1.822953	6646.880859
1.823038	6489.477539
1.823124	6477.523926
1.823209	6745.421875
1.823294	6733.430664
1.823380	6605.179688
1.823465	6553.255859
1.823550	6701.110352
1.823636	6761.762207
1.823721	6789.716797
1.823806	6759.577148
1.823892	6620.556641
1.823977	6808.200195
1.824063	6672.845215
1.824148	6766.093262
1.824233	6746.863281
1.824319	6814.681641
1.824404	6715.673828
1.824490	6667.456055
1.824575	6717.128906
1.824661	6643.555664
1.824746	6736.701660
1.824832	6739.236816
1.824918	6752.638672
1.825003	6910.918945
1.825089	6895.316406
1.825174	6839.889160
1.825260	6798.960449
1.825346	6989.708496
1.825431	6890.862305
1.825517	6683.490723
1.825603	6932.051758
1.825688	6959.871094
1.825774	6875.560547
1.825860	6849.136230
1.825945	6952.883789
1.826031	6857.769043
1.826117	7145.819336
1.826203	6880.851074
1.826288	6890.579590
1.826374	6987.010254
1.826460	7130.367676
1.826546	6872.795410
1.826632	6987.236328
1.826717	6946.393555
1.826803	6826.147949
1.826889	7074.082520
1.826975	7015.201660
1.827061	7082.621582
1.827147	7232.992188
1.827233	7112.796387
1.827319	7194.593262
1.827405	6973.481445
1.827491	7030.038086
1.827577	7176.689941
1.827663	7175.531250
1.827749	7152.751953
1.827835	7018.292480
1.827921	7081.999512
1.828007	6994.416504
1.828093	7205.750488
1.828179	7373.810059
1.828265	7084.626465
1.828351	7213.058594
1.828438	7078.740234
1.828524	7214.327637
1.828610	7295.907715
1.828696	7424.221680
1.828782	7171.273438
1.828868	7299.565918
1.828955	7208.505859
1.829041	7067.149414
1.829127	7292.437012
1.829213	7384.691406
1.829300	7369.127441
1.829386	7371.530273
1.829472	7197.934570
1.829558	7279.370117
1.829645	7127.389160
1.829731	7244.709961
1.829818	7204.056152
1.829904	7299.793457
1.829990	7528.266602
1.830077	7412.244141
1.830163	7375.176270
1.830250	7474.409668
1.830336	7390.725586
1.830422	7411.044922
1.830509	7506.639648
1.830595	7376.394531
1.830682	7307.114258
1.830768	7391.929199
1.830855	7347.746094
1.830941	7615.205566
1.831028	7366.862793
1.831115	7465.935547
1.831201	7189.054688
1.831288	7553.016602
1.831374	7455.163574
1.831461	7564.893066
1.831547	7542.204590
1.831634	7612.533691
1.831721	7518.310059
1.831807	7606.500977
1.831894	7580.244629
1.831981	7696.996582
1.832068	7717.201172
1.832154	7558.706055
1.832241	7528.899902
1.832328	7709.893066
1.832415	7501.465820
1.832501	7800.265625
1.832588	7516.899902
1.832675	7801.318848
1.832762	7657.267090
1.832849	7516.831055
1.832936	7487.068848
1.833022	7814.125488
1.833109	7534.598633
1.833196	7725.997559
1.833283	7838.875000
1.833370	7837.610352
1.833457	7914.780762
1.833544	7510.699219
1.833631	7783.920410
1.833718	7843.244141
1.833805	7802.786621
1.833892	7954.708496
1.833979	7778.898926
1.834066	7855.990234
1.834153	7901.010742
1.834240	7792.935059
1.834327	7852.188477
1.834414	7943.453125
1.834501	7821.188965
1.834589	7880.409180
1.834676	7775.979980
1.834763	7778.282227
1.834850	8043.729492
1.834937	7697.553223
1.835024	7827.841797
1.835111	7915.437012
1.835199	7896.391602
1.835286	7912.883789
1.835373	7950.686035
1.835461	7842.843262
1.835548	7745.689453
1.835635	8003.653320
1.835722	8052.066406
1.835810	7976.223633
1.835897	8017.527344
1.835984	7970.102539
1.836072	8323.617188
1.836159	7981.721680
1.836246	8168.417969
1.836334	8050.073242
1.836421	8194.149414
1.836509	8061.657715
1.836596	7978.832520
1.836684	7945.649414
1.836771	8008.149902
1.836859	7996.229980
1.836946	8002.024902
1.837034	8057.402344
1.837121	8151.713867
1.837209	8256.616211
1.837296	8113.685059
1.837384	7946.023438
1.837471	8114.607422
1.837559	8106.222168
1.837647	8140.292480
1.837734	8223.871094
1.837822	8187.179688
1.837910	8320.227539
1.837997	8138.579102
1.838085	8310.475586
1.838173	8217.244141
1.838260	8138.176758
1.838348	8218.126953
1.838436	8287.454102
1.838524	8293.181641
1.838611	8161.181152
1.838699	8195.173828
1.838787	8398.611328
1.838875	8291.365234
1.838963	8261.794922
1.839051	8489.822266
1.839138	8481.397461
1.839226	8233.107422
1.839314	8298.791016
1.839402	8184.610840
1.839490	8267.909180
1.839578	8330.030273
1.839666	8244.096680
1.839754	8507.071289
1.839842	8252.008789
1.839930	8388.073242
1.840018	8284.572266
1.840106	8448.760742
1.840194	8239.647461
1.840282	8347.458984
1.840370	8546.758789
1.840458	8394.041992
1.840546	8322.309570
1.840634	8454.666992
1.840722	8527.177734
1.840810	8473.044922
1.840898	8531.462891
1.840987	8378.894531
1.841075	8398.637695
1.841163	8453.523438
1.841251	8459.189453
1.841339	8468.368164
1.841428	8547.808594
1.841516	8602.634766
1.841604	8815.489258
1.841692	8554.210938
1.841781	8514.210938
1.841869	8586.558594
1.841957	8469.348633
1.842046	8811.896484
1.842134	8775.389648
1.842222	8840.630859
1.842311	8541.057617
1.842399	8672.950195
1.842487	8741.681641
1.842576	8547.447266
1.842664	8574.112305
1.842753	8523.664063
1.842841	8616.904297
1.842930	8654.056641
1.843018	8670.177734
1.843107	8693.297852
1.843195	8884.505859
1.843284	8911.084961
1.843372	8682.094727
1.843461	8820.707031
1.843549	8640.799805
1.843638	8772.375977
1.843726	8872.420898
1.843815	8776.544922
1.843904	8939.511719
1.843992	8787.704102
1.844081	8849.222656
1.844170	8882.754883
1.844258	8772.971680
1.844347	8925.322266
1.844436	8759.663086
1.844525	8723.316406
1.844613	8617.122070
1.844702	8944.018555
1.844791	8820.364258
1.844880	8860.837891
1.844968	8782.615234
1.845057	8753.279297
1.845146	8783.274414
1.845235	8945.843750
1.845324	9052.544922
1.845412	8873.204102
1.845501	8885.723633
1.845590	8831.990234
1.845679	8774.788086
1.845768	8996.456055
1.845857	8834.693359
1.845946	8875.083984
1.846035	8803.975586
1.846124	9095.163086
1.846213	8783.724609
1.846302	8883.295898
1.846391	8958.462891
1.846480	8901.321289
1.846569	8986.902344
1.846658	8752.291992
1.846747	8890.061523
1.846836	8679.894531
1.846925	9123.725586
1.847015	8927.500000
1.847104	9138.172852
1.847193	8997.633789
1.847282	8961.423828
1.847371	8897.419922
1.847460	9038.461914
1.847550	8960.568359
1.847639	8976.495117
1.847728	8995.888672
1.847817	8997.913086
1.847907	8781.187500
1.847996	8828.375977
1.848085	9139.351563
1.848175	9144.820313
1.848264	9073.948242
1.848353	8937.180664
1.848442	8932.272461
1.848532	8962.047852
1.848621	8957.136719
1.848711	8879.416992
1.848800	9269.713867
1.848889	9205.832031
1.848979	9027.609375
1.849068	9098.918945
1.849158	9132.097656
1.849247	9241.468750
1.849337	9059.891602
1.849426	8978.790039
1.849516	9081.208008
1.849605	9249.364258
1.849695	9092.127930
1.849785	9104.505859
1.849874	8940.423828
1.849964	9160.382813
1.850053	9190.037109
1.850143	9147.058594
1.850233	9449.862305
1.850322	9306.597656
1.850412	9094.248047
1.850502	9065.135742
1.850591	9056.764648
1.850681	9138.224609
1.850771	9126.389648
1.850861	9211.265625
1.850950	9019.854492
1.851040	9367.122070
1.851130	9289.666992
1.851220	9484.911133
1.851310	9110.674805
1.851399	9340.388672
1.851489	9152.589844
1.851579	9133.869141
1.851669	9118.603516
1.851759	9192.996094
1.851849	9260.469727
1.851939	9227.955078
1.852029	9278.167969
1.852119	9235.322266
1.852208	9264.843750
1.852298	9135.890625
1.852389	9168.863281
1.852479	9360.240234
1.852569	9310.527344
1.852659	9367.554688
1.852749	9252.456055
1.852839	9261.291016
1.852929	9600.461914
1.853019	9340.880859
1.853109	9267.138672
1.853199	9454.811523
1.853289	9264.155273
1.853379	9427.700195
1.853470	9494.936523
1.853560	9345.610352
1.853650	9306.303711
1.853740	9421.630859
1.853830	9478.517578
1.853921	9308.679688
1.854011	9379.303711
1.854101	9583.823242
1.854191	9228.653320
1.854282	9446.861328
1.854372	9349.240234
1.854462	9313.418945
1.854553	9380.541016
1.854643	9180.061523
1.854733	9518.150391
1.854824	9417.165039
1.854914	9419.078125
1.855004	9297.571289
1.855095	9244.658203
1.855185	9325.422852
1.855276	9375.321289
1.855366	9438.908203
1.855457	9433.963867
1.855547	9305.720703
1.855638	9430.926758
1.855728	9487.615234
1.855819	9383.387695
1.855909	9409.259766
1.856000	9352.989258
1.856091	9265.942383
1.856181	9524.457031
1.856272	9594.756836
1.856362	9541.912109
1.856453	9434.372070
1.856544	9292.676758
1.856634	9349.293945
1.856725	9422.981445
1.856816	9380.458008
1.856907	9583.952148
1.856997	9428.681641
1.857088	9447.657227
1.857179	9415.401367
1.857270	9489.005859
1.857360	9419.199219
1.857451	9414.269531
1.857542	9498.077148
1.857633	9383.941406
1.857724	9245.958984
1.857815	9319.518555
1.857905	9362.357422
1.857996	9258.546875
1.858087	9512.776367
1.858178	9446.473633
1.858269	9639.238281
1.858360	9538.856445
1.858451	9622.505859
1.858542	9358.629883
1.858633	9707.973633
1.858724	9447.573242
1.858815	9238.334961
1.858906	9410.486328
1.858997	9402.164063
1.859088	9128.365234
1.859179	9514.840820
1.859270	9401.028320
1.859362	9470.955078
1.859453	9622.493164
1.859544	9348.878906
1.859635	9340.574219
1.859726	9607.649414
1.859817	9572.112305
1.859909	9597.760742
1.860000	9409.321289
1.860091	9604.865234
1.860182	9267.016602
1.860273	9727.442383
1.860365	9389.682617
1.860456	9476.451172
1.860547	9440.978516
1.860639	9537.892578
1.860730	9339.522461
1.860821	9480.533203
1.860913	9343.302734
1.861004	9602.989258
1.861096	9404.735352
1.861187	9518.515625
1.861278	9730.582031
1.861370	9403.585938
1.861461	9395.293945
1.861553	9444.615234
1.861644	9344.835938
1.861736	9478.840820
1.861827	9368.925781
1.861919	9421.604492
1.862010	9362.525391
1.862102	9543.837891
1.862193	9373.052734
1.862285	9520.460938
1.862376	9512.161133
1.862468	9382.063477
1.862560	9603.819336
1.862651	9362.132813
1.862743	9347.099609
1.862835	9406.457031
1.862926	9492.840820
1.863018	9484.552734
1.863110	9462.750000
1.863201	9478.123047
1.863293	9419.164063
1.863385	9546.009766
1.863477	9348.585938
1.863569	9586.836914
1.863660	9325.320313
1.863752	9266.432617
1.863844	9302.068359
1.863936	9368.065430
1.864028	9420.543945
1.864120	9327.942383
1.864212	9312.949219
1.864303	9328.313477
1.864395	9407.739258
1.864487	9372.511719
1.864579	9505.838867
1.864671	9453.754883
1.864763	9351.140625
1.864855	9457.452148
1.864947	9378.450195
1.865039	9376.941406
1.865131	9432.682617
1.865223	9330.153320
1.865315	9547.476563
1.865408	9343.981445
1.865500	9514.116211
1.865592	9240.028320
1.865684	9272.185547
1.865776	9351.425781
1.865868	9397.007813
1.865960	9160.104492
1.866053	9367.086914
1.866145	9409.281250
1.866237	9310.295898
1.866329	9355.845703
1.866421	9277.060547
1.866514	9362.915039
1.866606	9049.025391
1.866698	9108.021484
1.866791	9136.777344
1.866883	9356.891602
1.866975	9305.035156
1.867068	9189.425781
1.867160	9174.524414
1.867252	9233.441406
1.867345	9242.020508
1.867437	9253.950195
1.867530	9631.413086
1.867622	9110.146484
1.867715	9215.960938
1.867807	9264.756836
1.867900	9085.642578
1.867992	9295.285156
1.868085	9384.249023
1.868177	9231.999023
1.868270	9093.195313
1.868362	9172.101563
1.868455	9311.250000
1.868547	9128.979492
1.868640	9174.371094
1.868733	9259.905273
1.868825	9137.959961
1.868918	9260.272461
1.869011	9188.539063
1.869103	8996.430664
1.869196	9349.432617
1.869289	9177.419922
1.869381	9212.713867
1.869474	9147.729492
1.869567	9269.901367
1.869660	9171.516602
1.869752	9226.832031
1.869845	9078.383789
1.869938	9066.905273
1.870031	9102.175781
1.870124	9110.727539
1.870216	9039.165039
1.870309	9261.318359
1.870402	9016.236328
1.870495	8941.386719
1.870588	9146.768555
1.870681	9098.603516
1.870774	9247.203125
1.870867	9135.687500
1.870960	9040.875977
1.871053	9059.420898
1.871146	9101.287109
1.871239	9206.449219
1.871332	9314.908203
1.871425	9136.868164
1.871518	9035.485352
1.871611	8910.826172
1.871704	9112.484375
1.871797	9091.045898
1.871891	8969.764648
1.871984	8928.388672
1.872077	8797.191406
1.872170	8932.170898
1.872263	8954.017578
1.872356	9002.461914
1.872450	9001.013672
1.872543	8979.619141
1.872636	8818.622070
1.872729	8946.819336
1.872823	9144.757813
1.872916	8827.657227
1.873009	9135.172852
1.873103	8977.599609
1.873196	8919.702148
1.873289	9097.562500
1.873383	8701.049805
1.873476	8912.080078
1.873569	8920.603516
1.873663	9041.939453
1.873756	9007.309570
1.873850	8790.250977
1.873943	8881.700195
1.874037	8737.683594
1.874130	8809.218750
1.874224	8933.770508
1.874317	8952.219727
1.874411	8775.144531
1.874504	8883.074219
1.874598	8769.009766
1.874691	8847.094727
1.874785	8729.760742
1.874879	8768.090820
1.874972	8650.807617
1.875066	8844.714844
1.875160	8624.857422
1.875253	8739.288086
1.875347	8675.020508
1.875441	8756.326172
1.875534	8695.382813
1.875628	8621.231445
1.875722	8669.441406
1.875816	8777.141602
1.875909	8673.264648
1.876003	8761.099609
1.876097	8693.604492
1.876191	8655.865234
1.876285	8654.473633
1.876378	8537.487305
1.876472	8681.410156
1.876566	8713.030273
1.876660	8708.328125
1.876754	8538.597656
1.876848	8774.828125
1.876942	8704.126953
1.877036	8633.449219
1.877130	8582.583984
1.877224	8581.203125
1.877318	8573.228516
1.877412	8647.677734
1.877506	8626.508789
1.877600	8414.190430
1.877694	8465.561523
1.877788	8375.242188
1.877882	8350.835938
1.877976	8438.422852
1.878070	8578.670898
1.878165	8550.951172
1.878259	8562.744141
1.878353	8640.364258
1.878447	8635.684570
1.878541	8650.748047
1.878635	8445.377930
1.878730	8358.494141
1.878824	8393.328125
1.878918	8467.611328
1.879012	8449.810547
1.879107	8346.544922
1.879201	8562.131836
1.879295	8422.731445
1.879390	8411.519531
1.879484	8318.180664
1.879578	8382.537109
1.879673	8384.472656
1.879767	8307.600586
1.879862	8273.433594
1.879956	8291.798828
1.880050	8385.645508
1.880145	8131.619141
1.880239	8330.452148
1.880334	8181.491699
1.880428	8209.695313
1.880523	8247.728516
1.880617	8108.688965
1.880712	8235.241211
1.880807	8099.525391
1.880901	8108.055176
1.880996	8136.242188
1.881090	8095.618652
1.881185	8192.588867
1.881280	8132.317871
1.881374	8019.671387
1.881469	8139.524902
1.881564	8007.271484
1.881658	7920.883301
1.881753	8066.875000
1.881848	7911.791992
1.881943	8005.393555
1.882037	8095.693848
1.882132	8254.644531
1.882227	8142.139648
1.882322	7934.857422
1.882416	8074.143555
1.882511	7889.816895
1.882606	7823.191895
1.882701	8031.041504
1.882796	7833.743164
1.882891	8044.790039
1.882986	7919.398438
1.883081	7921.390137
1.883176	7756.882324
1.883271	7928.635254
1.883365	7878.405762
1.883461	7955.453613
1.883555	7774.732422
1.883650	7721.289063
1.883746	7785.278320
1.883841	7780.765137
1.883936	7740.388184
1.884031	8133.598633
1.884126	7956.281250
1.884221	7811.609863
1.884316	7943.947266
1.884411	7818.871094
1.884506	7638.460449
1.884602	7747.963867
1.884697	7821.612305
1.884792	7774.773926
1.884887	7604.250977
1.884982	7720.198242
1.885078	7605.059570
1.885173	7750.251953
1.885268	7722.980469
1.885363	7419.244141
1.885459	7470.084961
1.885554	7572.934570
1.885649	7633.486816
1.885745	7511.989258
1.885840	7527.031250
1.885936	7720.790527
1.886031	7651.320801
1.886126	7643.593262
1.886222	7668.347656
1.886317	7183.251465
1.886413	7484.056152
1.886508	7359.491211
1.886604	7400.503418
1.886699	7311.689941
1.886795	7248.863281
1.886890	7468.308105
1.886986	7262.750977
1.887082	7313.474609
1.887177	7302.570313
1.887273	7333.817871
1.887368	7397.471680
1.887464	7409.246582
1.887560	7249.265137
1.887655	7329.101563
1.887751	7302.006348
1.887847	7271.680664
1.887942	7140.970215
1.888038	7149.535645
1.888134	7316.735840
1.888230	7250.819824
1.888325	7142.850586
1.888421	7187.004883
1.888517	7007.901855
1.888613	7132.935547
1.888709	7209.413574
1.888804	7053.029297
1.888900	7022.794922
1.888996	7092.787598
1.889092	7069.020996
1.889188	6996.785156
1.889284	7073.209961
1.889380	7107.610352
1.889476	7297.050293
1.889572	7221.593750
1.889668	7062.202637
1.889764	7277.387207
1.889860	7001.825195
1.889956	6903.870605
1.890052	6896.306152
1.890148	6953.275879
1.890244	7048.939453
1.890340	6947.813965
1.890436	6978.946777
1.890532	6939.130371
1.890628	6828.398926
1.890725	6940.122070
1.890821	6916.445801
1.890917	6738.099609
1.891013	6891.667969
1.891109	6784.253418
1.891206	6789.604492
1.891302	6804.614258
1.891398	6851.817383
1.891495	6918.321289
1.891591	6576.015625
1.891687	6867.822266
1.891783	6834.540039
1.891880	6775.530273
1.891976	6787.307617
1.892072	6721.891602
1.892169	6688.653809
1.892265	6771.172852
1.892362	6827.947754
1.892458	6560.075195
1.892555	6623.292969
1.892651	6612.588379
1.892748	6550.485840
1.892844	6539.795898
1.892941	6631.879395
1.893037	6614.757813
1.893134	6478.851563
1.893230	6603.000488
1.893327	6486.396484
1.893423	6684.310059
1.893520	6407.307129
1.893616	6464.019531
1.893713	6565.618164
1.893810	6458.733887
1.893906	6351.883789
1.894003	6408.568359
1.894100	6558.189941
1.894197	6380.868164
1.894293	6495.198242
1.894390	6385.223633
1.894487	6358.570313
1.894584	6395.980957
1.894680	6491.020996
1.894777	6505.985840
1.894874	6373.687988
1.894971	6321.451172
1.895068	6406.840332
1.895165	6284.221191
1.895262	6375.987305
1.895358	6390.955078
1.895455	6239.613770
1.895552	6344.132324
1.895649	6154.480957
1.895746	6367.665039
1.895843	6264.365234
1.895940	6177.076660
1.896037	6134.547363
1.896134	6347.596191
1.896231	6253.948242
1.896328	6157.136230
1.896425	6318.989746
1.896523	6193.465820
1.896620	6160.549805
1.896717	6051.048340
1.896814	6244.724121
1.896911	6246.910156
1.897008	6013.040039
1.897105	6050.345703
1.897203	6036.617188
1.897300	6029.269531
1.897397	5996.420898
1.897494	6138.888184
1.897591	6026.360352
1.897689	6006.272949
1.897786	6062.652344
1.897883	6074.418457
1.897981	6076.625977
1.898078	5970.566895
1.898175	6026.914551
1.898273	5882.697754
1.898370	5830.827148
1.898468	5969.908691
1.898565	5949.857910
1.898662	6063.425293
1.898760	5858.883789
1.898857	5819.778809
1.898955	5828.381836
1.899052	5929.178223
1.899150	5826.506836
1.899247	6079.822754
1.899345	5919.962402
1.899442	5830.050293
1.899540	5825.935547
1.899638	5872.640625
1.899735	5792.305664
1.899833	5765.973145
1.899930	5780.918457
1.900028	5767.292480
1.900126	5899.654297
1.900223	5832.071289
1.900321	5735.956543
1.900419	5804.818848
1.900517	5585.050293
1.900614	5704.649902
1.900712	5653.004395
1.900810	5550.655273
1.900908	5796.981934
1.901006	5574.221680
1.901103	5741.253418
1.901201	5623.115723
1.901299	5723.569336
1.901397	5754.317871
1.901495	5493.745117
1.901593	5581.507324
1.901691	5482.481934
1.901789	5636.679688
1.901887	5680.074219
1.901984	5524.130371
1.902083	5501.098145
1.902181	5506.539063
1.902279	5426.594238
1.902377	5457.339844
1.902475	5393.235352
1.902573	5458.745117
1.902671	5429.423828
1.902769	5415.911133
1.902867	5408.721680
1.902965	5366.787109
1.903063	5359.606934
1.903161	5481.897949
1.903260	5288.422852
1.903358	5388.588379
1.903456	5375.096680
1.903554	5320.583984
1.903653	5285.020508
1.903751	5479.763672
1.903849	5390.563477
1.903947	5383.389160
1.904045	5246.935059
1.904144	5217.716797
1.904242	5232.638184
1.904341	5206.583008
1.904439	5353.850586
1.904537	5274.222168
1.904636	5323.776367
1.904734	5344.967285
1.904832	5246.483887
1.904931	5236.193848
1.905029	5229.055176
1.905128	5199.885254
1.905226	5246.255371
1.905325	5302.050293
1.905423	5191.083496
1.905522	5209.122070
1.905620	5035.303223
1.905719	5150.843262
1.905818	5209.751953
1.905916	5111.462891
1.906015	5245.792480
1.906114	5163.241699
1.906212	5052.438965
1.906311	5145.872559
1.906410	5192.160645
1.906508	5122.232910
1.906607	5146.529297
1.906706	5035.817383
1.906804	4812.135742
1.906903	4867.854980
1.907002	5005.144531
1.907101	5045.126953
1.907200	4918.834473
1.907298	5034.093750
1.907397	5086.596191
1.907496	4860.021484
1.907595	4984.639160
1.907694	4930.550781
1.907793	4989.303223
1.907892	4997.900879
1.907991	4940.703125
1.908090	4917.980957
1.908188	4907.793457
1.908288	4872.557617
1.908386	5056.500000
1.908486	4808.380371
1.908584	4829.516602
1.908684	4822.480469
1.908783	4965.635742
1.908882	4820.928223
1.908981	4720.058594
1.909080	4825.631836
1.909179	4799.839844
1.909278	4870.975098
1.909377	4701.391602
1.909477	4685.007813
1.909576	4828.000000
1.909675	4824.098633
1.909774	4754.596191
1.909873	4622.647949
1.909973	4749.943359
1.910072	4680.485840
1.910171	4745.292480
1.910271	4788.228516
1.910370	4662.622070
1.910469	4655.630859
1.910568	4732.878906
1.910668	4657.251953
1.910767	4634.669922
1.910867	4571.556641
1.910966	4683.064453
1.911065	4747.775879
1.911165	4616.102539
1.911264	4643.407227
1.911364	4639.543945
1.911463	4570.258789
1.911563	4597.557129
1.911662	4512.729492
1.911762	4583.622070
1.911862	4719.872559
1.911961	4603.937012
1.912061	4609.420410
1.912160	4524.658203
1.912260	4611.048340
1.912359	4691.188477
1.912459	4513.142578
1.912559	4531.075684
1.912659	4331.346680
1.912758	4538.943359
1.912858	4500.912598
1.912958	4593.424316
1.913057	4493.249023
1.913157	4449.029785
1.913257	4442.101074
1.913357	4338.892578
1.913457	4425.144043
1.913556	4582.779785
1.913656	4454.763184
1.913756	4295.749023
1.913856	4642.634766
1.913956	4371.937988
1.914056	4430.179199
1.914156	4286.780273
1.914256	4289.191406
1.914356	4477.653809
1.914456	4483.133789
1.914556	4516.510742
1.914656	4512.684570
1.914756	4353.915527
1.914856	4331.525879
1.914956	4470.232910
1.915056	4426.150391
1.915156	4267.497070
1.915256	4406.146973
1.915356	4328.040527
1.915456	4361.393066
1.915557	4246.180176
1.915657	4260.968750
1.915757	4331.441895
1.915857	4302.904297
1.915957	4320.769043
1.916057	4264.410156
1.916158	4307.010254
1.916258	4195.026367
1.916358	4259.260254
1.916458	4230.760742
1.916559	4115.752930
1.916659	4207.772461
1.916759	4213.272949
1.916860	4070.527832
1.916960	4134.718750
1.917061	4168.014648
1.917161	4192.039063
1.917262	4172.845215
1.917362	4045.650391
1.917462	4267.149902
1.917563	4093.706787
1.917663	4241.100586
1.917764	4126.312012
1.917864	4165.732422
1.917965	4223.637695
1.918066	4195.215332
1.918166	4139.064941
1.918267	4156.887207
1.918367	4125.408203
1.918468	4026.168945
1.918569	4102.520020
1.918669	4027.951904
1.918770	4131.988770
1.918871	4149.794434
1.918971	4109.112305
1.919072	4077.675537
1.919173	4132.404785
1.919273	4076.362549
1.919374	4094.162109
1.919475	3982.784424
1.919576	3914.492920
1.919677	4024.545166
1.919777	4076.155518
1.919878	3998.660889
1.919979	3918.118164
1.920080	4101.839355
1.920181	4064.314453
1.920282	3950.012451
1.920383	3955.518555
1.920484	3988.657715
1.920585	4061.697021
1.920686	3975.094727
1.920787	4002.076416
1.920888	3973.814453
1.920989	3948.629883
1.921090	3865.168945
1.921191	3873.747803
1.921292	3833.258057
1.921393	3786.648926
1.921494	3700.201660
1.921595	3975.467041
1.921696	3833.853760
1.921798	4038.533447
1.921899	3838.746094
1.922000	3914.706787
1.922101	3877.324219
1.922202	4020.621582
1.922304	3805.656982
1.922405	3912.185303
1.922506	3844.219971
1.922607	3944.587158
1.922709	3839.922119
1.922810	3802.593018
1.922911	3844.802490
1.923013	3718.796387
1.923114	3776.294189
1.923216	3913.261475
1.923317	3897.347412
1.923418	3762.244629
1.923520	3743.303955
1.923621	3846.580078
1.923723	3745.152832
1.923824	3701.789795
1.923926	3725.623779
1.924027	3859.368652
1.924129	3712.212402
1.924230	3705.509766
1.924332	3787.312012
1.924433	3795.855957
1.924535	3779.990234
1.924637	3767.179932
1.924738	3659.827881
1.924840	3677.534668
1.924942	3747.066162
1.925043	3792.188232
1.925145	3684.901123
1.925247	3666.023193
1.925348	3726.370850
1.925450	3613.052979
1.925552	3761.721191
1.925654	3828.114990
1.925756	3727.014893
1.925857	3689.880859
1.925959	3680.154541
1.926061	3670.431152
1.926163	3700.269775
1.926265	3577.973877
1.926367	3659.531494
1.926468	3604.194580
1.926570	3606.654785
1.926672	3666.884521
1.926774	3587.252441
1.926876	3668.742432
1.926978	3643.838867
1.927080	3552.094482
1.927182	3654.816895
1.927284	3611.701660
1.927386	3620.231201
1.927488	3568.025146
1.927591	3612.992188
1.927693	3563.839844
1.927795	3620.933350
1.927897	3580.899414
1.927999	3616.732422
1.928101	3549.408447
1.928203	3585.234863
1.928306	3490.643311
1.928408	3574.982910
1.928510	3495.581787
1.928612	3504.112305
1.928715	3530.824463
1.928817	3515.104004
1.928919	3517.567383
1.929022	3468.531982
1.929124	3480.088135
1.929226	3479.527344
1.929329	3460.799561
1.929431	3532.897949
1.929533	3595.892334
1.929636	3504.521973
1.929738	3476.724365
1.929841	3424.732422
1.929943	3439.304932
1.930046	3378.262695
1.930148	3423.076904
1.930251	3422.525146
1.930353	3403.835938
1.930456	3421.422119
1.930558	3375.541016
1.930661	3477.727295
1.930764	3483.208740
1.930866	3660.857422
1.930969	3509.266357
1.931072	3553.993652
1.931174	3372.277832
1.931277	3543.792236
1.931380	3328.937744
1.931482	3322.365967
1.931585	3273.556885
1.931688	3502.291992
1.931791	3423.308105
1.931893	3368.474609
1.931996	3401.098389
1.932099	3337.241943
1.932202	3354.789063
1.932305	3290.960693
1.932407	3365.760498
1.932510	3461.625244
1.932613	3388.773438
1.932716	3373.168213
1.932819	3438.872314
1.932922	3323.908203
1.933025	3326.382568
1.933128	3458.278320
1.933231	3394.524658
1.933334	3366.897949
1.933437	3327.246338
1.933540	3374.835938
1.933643	3407.373047
1.933746	3256.478516
1.933849	3355.165283
1.933953	3327.571045
1.934056	3305.996338
1.934159	3401.622314
1.934262	3349.997559
1.934365	3361.473389
1.934468	3381.956055
1.934572	3417.447021
1.934675	3365.852783
1.934778	3353.301758
1.934881	3205.683838
1.934985	3361.223877
1.935088	3267.662842
1.935191	3243.135010
1.935295	3182.619141
1.935398	3356.057129
1.935501	3289.545166
1.935605	3310.001953
1.935708	3399.399414
1.935812	3323.920654
1.935915	3218.498779
1.936018	3158.054688
1.936122	3250.414307
1.936225	3288.828857
1.936329	3225.407715
1.936432	3275.791016
1.936536	3293.225830
1.936639	3259.767578
1.936743	3235.298828
1.936847	3174.929199
1.936950	3288.109863
1.937054	3296.553955
1.937157	3307.986084
1.937261	3280.538330
1.937365	3118.550293
1.937468	3204.742676
1.937572	3255.039063
1.937676	3149.915283
1.937779	3164.347656
1.937883	3256.451904
1.937987	3097.610840
1.938091	3246.441650
1.938195	3201.126221
1.938298	3221.509277
1.938402	3077.701904
1.938506	3265.240234
1.938610	3178.171875
1.938714	3207.496338
1.938818	3218.911865
1.938922	3257.168457
1.939026	3271.554443
1.939130	3196.481934
1.939234	3282.424316
1.939337	3156.699951
1.939442	3284.345703
1.939546	3292.755371
1.939650	3068.770020
1.939754	3199.346924
1.939858	3258.399414
1.939962	3186.403076
1.940066	3272.235596
1.940170	3119.881348
1.940274	3104.495361
1.940378	3121.850586
1.940482	3097.542725
1.940587	3091.092773
1.940691	3025.153076
1.940795	3155.525635
1.940899	3137.174805
1.941004	3139.641846
1.941108	3162.916504
1.941212	3266.432861
1.941316	3161.895996
1.941421	3000.939453
1.941525	3092.548584
1.941629	3139.573730
1.941734	3091.550537
1.941838	2990.095215
1.941943	3123.210205
1.942047	3057.402344
1.942152	3261.692139
1.942256	3056.415771
1.942360	3233.937500
1.942465	3091.026611
1.942569	3066.800049
1.942674	3060.374268
1.942778	3101.390381
1.942883	3180.931885
1.942988	3150.778320
1.943092	3185.832520
1.943197	3155.687500
1.943301	3092.963379
1.943406	3119.123535
1.943511	3160.083252
1.943616	2961.174561
1.943720	3129.456299
1.943825	3120.070557
1.943930	3175.802002
1.944034	3051.000488
1.944139	3127.436523
1.944244	2984.932861
1.944349	3126.427002
1.944453	2986.926758
1.944558	3039.668457
1.944663	3201.779541
1.944768	2994.348389
1.944873	3020.463867
1.944978	3158.859863
1.945083	2992.898438
1.945188	3036.725586
1.945293	2991.932373
1.945397	3047.557617
1.945503	3100.212158
1.945608	3084.951172
1.945712	2998.855713
1.945818	3060.345947
1.945922	3092.309326
1.946028	2962.001221
1.946133	3061.813721
1.946238	3073.116455
1.946343	2984.157227
1.946448	2965.985596
1.946553	3277.975586
1.946658	3032.816895
1.946764	3032.327148
1.946869	3046.569580
1.946974	3010.726807
1.947079	2915.986572
1.947184	3012.699463
1.947290	3012.213135
1.947395	2932.238281
1.947500	2958.256836
1.947606	3057.843262
1.947711	3039.694092
1.947816	3098.045410
1.947922	3015.179443
1.948027	3014.692383
1.948133	3120.070557
1.948238	3066.642822
1.948343	3039.689941
1.948449	3015.685059
1.948554	3041.646973
1.948660	3029.402588
1.948765	2864.394287
1.948871	3004.925293
1.948976	3157.158447
1.949082	3012.764160
1.949187	2933.007080
1.949293	3011.791016
1.949399	2879.229980
1.949504	2990.276611
1.949610	2916.442627
1.949716	3024.513672
1.949821	3003.493652
1.949927	3017.671631
1.950033	3017.184326
1.950138	2969.790039
1.950244	3004.484863
1.950350	2971.761475
1.950456	3132.445801
1.950562	2941.503662
1.950667	3090.423584
1.950773	3019.632080
1.950879	2858.084229
1.950985	3006.945068
1.951091	2962.548096
1.951197	3026.462402
1.951303	2993.782227
1.951409	3037.188721
1.951514	3019.145020
1.951620	2892.879883
1.951726	3032.792480
1.951832	2953.351563
1.951939	2952.874512
1.952044	3034.246094
1.952150	2957.765869
1.952257	2954.365723
1.952363	2939.279541
1.952469	2880.379150
1.952575	2964.617188
1.952681	2961.218018
1.952787	2855.624512
1.952893	2846.405029
1.953000	2988.971924
1.953106	2912.609375
1.953212	2967.580322
1.953318	2870.823242
1.953424	2954.953369
1.953531	3009.890381
1.953637	2901.508789
1.953743	2915.618164
1.953850	2955.958984
1.953956	2996.286865
1.954062	2853.006592
1.954169	2977.836182
1.954275	2986.094727
1.954382	2869.100342
1.954488	2903.584717
1.954594	2987.559082
1.954701	2981.253418
1.954807	2980.771729
1.954914	3021.036133
1.955020	2912.879150
1.955127	2964.779297
1.955234	2926.482666
1.955340	2780.581787
1.955447	2940.077393
1.955553	2901.802979
1.955660	2880.983887
1.955767	2909.585205
1.955873	2981.770020
1.955980	2949.324951
1.956087	2948.848389
1.956193	2843.798828
1.956300	2910.138672
1.956407	2889.341309
1.956514	2967.265869
1.956620	2940.659912
1.956727	2937.281982
1.956834	2954.219238
1.956941	2979.855225
1.957048	2924.253662
1.957154	2964.388916
1.957261	2972.610107
1.957368	2908.337402
1.957475	2965.850830
1.957582	2962.472656
1.957689	3002.568848
1.957796	2926.741455
1.957903	2885.706299
1.958010	3021.390625
1.958117	2928.218506
1.958224	2823.493164
1.958331	2962.016846
1.958438	2923.903564
1.958545	2862.646484
1.958652	2839.031494
1.958759	2939.846680
1.958867	2942.264404
1.958974	2999.641113
1.959081	2886.362305
1.959188	2891.678955
1.959295	2905.667480
1.959403	2960.121582
1.959510	2927.849854
1.959617	2962.054199
1.959724	3016.472656
1.959832	2969.762939
1.959939	2891.295654
1.960046	2948.586914
1.960154	2887.472900
1.960261	2762.864746
1.960368	2935.610352
1.960476	2917.819092
1.960583	2949.088867
1.960690	2974.578125
1.960798	2930.826904
1.960905	2941.889648
1.961013	2875.087891
1.961120	2935.171631
1.961228	2900.103271
1.961336	2945.751465
1.961443	2815.590820
1.961551	2970.731445
1.961658	2878.060547
1.961766	2828.626953
1.961874	2998.090088
1.961981	2954.411865
1.962089	2902.110596
1.962197	2910.276855
1.962304	2967.369141
1.962412	2949.623047
1.962520	2822.548340
1.962627	2914.147705
1.962735	2959.696777
1.962843	2936.211426
1.962951	2835.098877
1.963058	2874.888672
1.963166	2906.042236
1.963274	2891.202393
1.963382	2913.722412
1.963490	2918.997070
1.963598	2973.103516
1.963706	2849.122314
1.963814	2874.505859
1.963922	2859.685059
1.964030	2974.050537
1.964138	2764.041748
1.964246	2901.343750
1.964354	2961.129639
1.964462	2894.666992
1.964570	2925.750732
1.964678	2939.616943
1.964786	2890.394531
1.964894	2921.463623
1.965002	2923.857422
1.965110	2840.268555
1.965219	3069.056641
1.965327	2859.405029
1.965435	2893.318359
1.965543	2844.158691
1.965651	2863.744629
1.965760	2814.605225
1.965868	2911.485596
1.965976	2902.427246
1.966084	2879.062256
1.966193	2812.783447
1.966301	2803.745361
1.966410	2788.989014
1.966518	2868.618652
1.966626	2842.417969
1.966735	2790.493896
1.966843	2927.257324
1.966952	2812.456055
1.967060	2849.151367
1.967169	2771.543945
1.967277	2788.236084
1.967386	2964.877686
1.967494	2901.568359
1.967603	2792.593018
1.967711	2800.705811
1.967820	2937.267822
1.967928	2796.944824
1.968037	2944.877441
1.968146	2867.366943
1.968254	2866.902588
1.968363	2960.560303
1.968472	2991.449707
1.968580	2802.782715
1.968689	2987.630371
1.968798	2921.589111
1.968907	2827.070313
1.969015	2838.010254
1.969124	2920.169922
1.969233	2788.666748
1.969342	2907.832275
1.969451	2856.105225
1.969560	2830.018799
1.969669	2932.039551
1.969777	2851.871826
1.969886	2865.638428
1.969995	2859.483887
1.970104	2958.588623
1.970213	2938.199219
1.970322	2983.225342
1.970431	2994.115967
1.970540	2862.854980
1.970649	2859.548828
1.970758	2896.032227
1.970868	2918.295654
1.970977	2903.617432
1.971086	2880.421875
1.971195	2845.873047
1.971304	2984.558838
1.971413	2907.415039
1.971522	2858.684326
1.971632	2909.311768
1.971741	2854.920410
1.971850	2826.083496
1.971959	2924.919922
1.972068	2921.609619
1.972178	2958.004883
1.972287	2869.622314
1.972396	3002.408691
1.972506	2854.519287
1.972615	2953.254395
1.972724	2898.934570
1.972834	2827.632324
1.972943	2818.675781
1.973053	2897.525635
1.973162	2806.434570
1.973272	2825.800293
1.973381	2839.497314
1.973491	2991.886719
1.973600	2881.028564
1.973710	2934.324707
1.973819	2880.094971
1.973929	2797.595703
1.974039	2814.111816
1.974148	2875.867188
1.974258	2900.847168
1.974367	2852.320313
1.974477	2880.122314
1.974587	2862.699707
1.974697	2831.155273
1.974806	2940.873291
1.974916	2821.763916
1.975026	2990.754395
1.975135	2877.322754
1.975245	2865.563477
1.975355	2777.593506
1.975465	2844.878662
1.975575	2923.429199
1.975685	3010.418213
1.975794	2806.823486
1.975904	2888.162109
1.976014	2913.073975
1.976124	2794.180420
1.976234	2872.662354
1.976344	2872.196777
1.976454	2914.003906
1.976564	2876.900879
1.976674	2803.185547
1.976784	2963.289551
1.976894	3016.320068
1.977004	2987.671875
1.977114	3004.080322
1.977224	3009.223145
1.977335	2865.194092
1.977445	2906.940674
1.977555	2855.824219
1.977665	2925.690430
1.977775	2883.025391
1.977885	2865.684326
1.977996	2868.031494
1.978106	2904.114014
1.978216	2976.726074
1.978327	2990.295410
1.978437	2880.221680
1.978547	2896.611816
1.978658	2938.277832
1.978768	2867.586182
1.978878	2855.888672
1.978989	2804.886963
1.979099	2866.191406
1.979210	2826.431641
1.979320	2859.649170
1.979430	2845.156006
1.979541	2839.083740
1.979651	2900.332520
1.979762	2866.208008
1.979872	2879.763428
1.979983	2862.474609
1.980094	2920.876465
1.980204	3001.680664
1.980315	2827.455078
1.980425	2894.239258
1.980536	2860.153809
1.980647	2999.733643
1.980757	2912.434082
1.980868	2939.961182
1.980979	2861.097900
1.981090	2933.409180
1.981200	2927.336182
1.981311	2823.329834
1.981422	2906.802734
1.981533	2847.589111
1.981644	2872.298096
1.981754	2908.184326
1.981865	2972.017822
1.981976	2954.762939
1.982087	2892.794189
1.982198	2780.544189
1.982309	2866.708984
1.982420	2801.990723
1.982531	2832.260986
1.982642	2801.081543
1.982753	2786.665771
1.982864	2842.049561
1.982975	2933.702637
1.983086	2807.636475
1.983197	2835.085205
1.983308	2960.174561
1.983419	2881.587158
1.983530	2948.057617
1.983642	2911.326904
1.983753	2924.795410
1.983864	2865.778564
1.983975	2985.166016
1.984086	2878.782471
1.984198	2906.178711
1.984309	2861.132568
1.984420	2855.097168
1.984532	2904.763916
1.984643	2951.629883
1.984754	2934.446045
1.984865	2933.969727
1.984977	2905.661621
1.985088	2860.666016
1.985200	2929.759033
1.985311	2918.156006
1.985422	2906.556641
1.985534	2875.494385
1.985645	2863.905762
1.985757	2952.401855
1.985868	2935.245117
1.985980	2954.222412
1.986091	2873.160889
1.986203	2900.476807
1.986315	2880.561523
1.986426	2935.640381
1.986538	2896.287354
1.986650	2879.158447
1.986761	2895.346924
1.986873	2842.141846
1.986985	2855.555664
1.987096	2941.105469
1.987208	2954.498779
1.987320	2959.566406
1.987432	2900.846924
1.987543	2911.467041
1.987655	2949.807617
1.987767	2866.170898
1.987879	2954.392578
1.987991	2868.010986
1.988103	2906.333252
1.988214	2908.631348
1.988326	2927.546631
1.988438	2882.763428
1.988550	2957.052246
1.988662	2851.375488
1.988774	3008.681396
1.988886	2916.867432
1.988998	2894.257813
1.989110	2918.686523
1.989222	2887.785645
1.989334	2881.785156
1.989447	2900.673340
1.989559	2958.261475
1.989671	2753.224121
1.989783	2902.023682
1.989895	2802.070313
1.990007	2843.059326
1.990119	2900.609375
1.990232	2908.424316
1.990344	2877.574463
1.990456	2901.957031
1.990568	2857.314453
1.990681	2978.300781
1.990793	2853.626221
1.990905	2820.050537
1.991018	3007.197266
1.991130	2918.438232
1.991242	3011.735840
1.991355	2936.792725
1.991467	2939.072510
1.991580	2869.678467
1.991692	3001.510010
1.991805	2772.294189
1.991917	2986.758057
1.992030	2917.401123
1.992142	2859.084229
1.992255	2886.159180
1.992367	2882.936523
1.992480	3009.109375
1.992592	2926.041504
1.992705	2776.948242
1.992818	2955.359375
1.992930	2795.304688
1.993043	2838.863525
1.993156	2989.673584
1.993269	2876.439941
1.993381	2886.970215
1.993494	2913.991455
1.993607	2891.529053
1.993720	2899.303467
1.993832	2951.038574
1.993945	2975.284180
1.994058	2914.370361
1.994171	2927.628418
1.994284	2767.889160
1.994397	2830.584961
1.994510	2926.200684
1.994623	2807.708008
1.994736	2906.040283
1.994848	2919.286133
1.994962	2817.311523
1.995075	2849.767090
1.995188	2871.242432
1.995301	2802.227783
1.995414	2840.152588
1.995527	2908.216064
1.995640	2869.375244
1.995753	2868.908691
1.995866	2901.318115
1.995979	2788.537842
1.996092	2818.210938
1.996206	2987.529785
1.996319	2855.624756
1.996432	2849.685547
1.996545	2901.225098
1.996659	2933.592041
1.996772	2870.184082
1.996885	2916.223633
1.996999	2951.307129
1.997112	2789.475098
1.997225	2923.003906
1.997339	2892.455566
1.997452	2886.518066
1.997565	2902.446533
1.997679	2871.916260
1.997792	2885.109619
1.997906	2780.836914
1.998019	2897.827148
1.998133	2763.547363
1.998246	2943.299805
1.998360	2874.573730
1.998473	2814.058350
1.998587	2914.573486
1.998700	2922.284912
1.998814	2755.394531
1.998928	2880.418945
1.999041	2858.132324
1.999155	2721.328369
1.999269	2928.087158
1.999382	2927.610596
1.999496	2796.312500
1.999610	2847.632568
1.999724	2928.906250
1.999838	2873.947021
1.999951	2759.084961
2.000065	2897.520752
2.000179	2788.137695
2.000293	2893.855469
2.000407	2857.999512
2.000521	2770.447754
2.000635	2897.884521
2.000748	2913.736328
2.000862	2823.497803
2.000976	2934.545410
2.001091	2781.789795
2.001204	2822.119141
2.001318	2938.549316
2.001432	2864.687012
2.001547	2831.611084
2.001661	2746.921875
2.001775	2830.689209
2.001889	2827.512207
2.002003	2821.620361
2.002117	2777.716797
2.002231	2777.264404
2.002346	2831.099854
2.002460	2841.494629
2.002574	2900.729004
2.002688	2799.873535
2.002802	2910.635010
2.002917	2796.249756
2.003031	2852.740723
2.003145	2814.318115
2.003260	2805.727295
2.003374	2816.112061
2.003489	2791.263672
2.003603	2863.966309
2.003717	2898.718018
2.003832	2898.245850
2.003946	2865.275391
2.004061	2851.270020
2.004175	2883.293457
2.004290	2820.565674
2.004404	2822.812744
2.004519	2881.884766
2.004633	2832.715332
2.004748	2848.484619
2.004862	2910.228027
2.004977	2736.683105
2.005092	2849.796631
2.005206	2897.992676
2.005321	2889.411865
2.005436	2859.214111
2.005550	2810.111572
2.005665	2866.387207
2.005780	2903.736328
2.005895	2687.206543
2.006010	2924.392334
2.006124	2732.228027
2.006239	2807.365723
2.006354	2804.209473
2.006469	2890.104736
2.006584	2862.653076
2.006699	2819.024658
2.006814	2821.262451
2.006928	2810.015625
2.007043	2860.787598
2.007159	2787.532959
2.007273	2754.733398
2.007388	2827.049316
2.007504	2770.002930
2.007618	2866.539795
2.007734	2903.783936
2.007849	2930.243164
2.007964	2757.426270
2.008079	2762.361572
2.008194	2807.674072
2.008309	2898.726807
2.008425	2793.303711
2.008540	2878.947754
2.008655	2835.435791
2.008770	2754.281738
2.008885	2788.793457
2.009001	2885.137451
2.009116	2739.492920
2.009231	2932.580322
2.009346	2813.850830
2.009462	2869.821045
2.009577	2740.393555
2.009693	2817.847168
2.009808	2884.532227
2.009923	2712.199707
2.010039	2829.893555
2.010154	2687.155273
2.010270	2777.974121
2.010386	2812.407959
2.010501	2838.781006
2.010617	2822.221680
2.010732	2776.162598
2.010848	2858.847168
2.010963	2783.301514
2.011079	2817.700195
2.011194	2731.463623
2.011310	2779.259766
2.011426	2829.720215
2.011541	2797.107910
2.011657	2823.439453
2.011773	2809.587402
2.011889	2835.908203
2.012004	2888.995117
2.012120	2867.107422
2.012236	2770.282227
2.012352	2892.933838
2.012468	2849.650391
2.012583	2782.303223
2.012699	2985.138184
2.012815	2875.000244
2.012931	2700.722168
2.013047	2743.058350
2.013163	2844.188965
2.013279	2779.580811
2.013395	2728.354736
2.013511	2781.345703
2.013627	2828.976563
2.013743	2783.109131
2.013859	2798.677979
2.013975	2728.799805
2.014091	2843.148193
2.014208	2743.924316
2.014324	2754.151611
2.014440	2740.360596
2.014556	2793.270996
2.014672	2736.798828
2.014788	2776.357178
2.014905	2839.901855
2.015021	2804.778564
2.015137	2777.663818
2.015254	2721.239746
2.015370	2768.762695
2.015486	2736.338135
2.015603	2746.547119
2.015719	2756.752930
2.015835	2796.249512
2.015952	2761.178467
2.016068	2776.701172
2.016185	2752.291748
2.016301	2887.571533
2.016418	2639.634521
2.016534	2822.777100
2.016651	2782.415527
2.016767	2750.045898
2.016884	2770.870361
2.017000	2802.322998
2.017117	2801.865234
2.017234	2697.750488
2.017350	2649.475830
2.017467	2720.782715
2.017583	2773.469971
2.017700	2778.329346
2.017817	2711.482910
2.017934	2684.487305
2.018050	2869.888184
2.018167	2707.500244
2.018284	2669.902588
2.018401	2722.537354
2.018517	2740.664551
2.018634	2721.648193
2.018751	2697.333496
2.018868	2771.143555
2.018985	2818.415771
2.019102	2743.729004
2.019219	2748.581787
2.019336	2605.028564
2.019453	2692.041260
2.019570	2747.235107
2.019687	2715.000977
2.019804	2735.744141
2.019921	2761.776367
2.020038	2666.015869
2.020155	2763.521240
2.020272	2646.618408
2.020390	2749.387451
2.020507	2709.251953
2.020624	2716.745117
2.020741	2695.142090
2.020858	2697.346191
2.020976	2681.041260
2.021093	2601.295410
2.021210	2711.883301
2.021327	2729.939209
2.021445	2755.916016
2.021562	2707.912109
2.021679	2776.146729
2.021797	2751.924072
2.021914	2751.474365
2.022031	2616.377686
2.022149	2742.656006
2.022266	2742.207764
2.022384	2728.565186
2.022501	2772.972412
2.022619	2693.379639
2.022736	2661.288818
2.022854	2663.490967
2.022971	2681.512207
2.023089	2649.438965
2.023206	2749.167236
2.023324	2682.833008
2.023442	2685.029297
2.023559	2623.996094
2.023677	2660.444580
2.023795	2694.247314
2.023912	2612.176270
2.024030	2774.983643
2.024148	2785.059326
2.024266	2637.214600
2.024384	2697.308594
2.024501	2633.721191
2.024619	2714.841064
2.024737	2740.699463
2.024855	2729.732178
2.024973	2676.698242
2.025091	2752.499756
2.025208	2660.051758
2.025326	2683.269531
2.025445	2709.107178
2.025563	2664.001465
2.025681	2629.417480
2.025798	2684.140869
2.025917	2631.183350
2.026035	2620.250977
2.026153	2740.575684
2.026271	2637.766357
2.026389	2582.226318
2.026507	2715.616943
2.026625	2586.628174
2.026743	2565.221680
2.026861	2512.352051
2.026980	2593.225342
2.027098	2569.206299
2.027216	2610.725342
2.027334	2649.609863
2.027453	2698.963135
2.027571	2659.222656
2.027689	2661.406982
2.027808	2668.828613
2.027926	2610.781982
2.028044	2688.901123
2.028163	2675.372070
2.028281	2617.352539
2.028400	2507.013428
2.028518	2608.646484
2.028637	2671.005371
2.028755	2563.326904
2.028874	2680.592041
2.028992	2606.939209
2.029111	2569.911621
2.029229	2629.611328
2.029348	2616.113525
2.029467	2639.202881
2.029585	2612.644531
2.029704	2578.258057
2.029823	2536.047363
2.029941	2577.414063
2.030060	2529.995117
2.030179	2589.622803
2.030298	2662.281006
2.030416	2646.187256
2.030535	2588.351074
2.030654	2629.667969
2.030773	2504.035645
2.030892	2675.750000
2.031011	2555.366211
2.031129	2549.733643
2.031248	2531.069580
2.031367	2624.479492
2.031486	2655.319580
2.031605	2592.355469
2.031724	2615.375488
2.031843	2542.020508
2.031962	2531.187744
2.032081	2551.602539
2.032200	2504.326172
2.032319	2535.149902
2.032439	2550.349121
2.032557	2651.408447
2.032677	2531.302979
2.032796	2564.702881
2.032915	2494.064209
2.033034	2488.455078
2.033154	2573.842285
2.033273	2534.429443
2.033392	2539.212158
2.033511	2525.803467
2.033631	2624.118896
2.033750	2543.159912
2.033869	2493.394775
2.033989	2503.373779
2.034108	2552.295898
2.034227	2437.653320
2.034347	2406.106934
2.034466	2499.138428
2.034586	2548.028809
2.034705	2480.159180
2.034825	2523.848877
2.034944	2487.126953
2.035064	2554.138184
2.035183	2481.126465
2.035303	2581.815186
2.035423	2480.313477
2.035542	2451.402344
2.035662	2549.455078
2.035781	2525.722900
2.035901	2486.458008
2.036021	2498.998535
2.036140	2488.232178
2.036260	2511.123291
2.036380	2606.481201
2.036500	2543.943359
2.036619	2440.025879
2.036739	2493.954834
2.036859	2480.612549
2.036979	2462.102295
2.037099	2500.485840
2.037219	2481.978027
2.037339	2525.515625
2.037459	2512.178955
2.037578	2519.519287
2.037699	2467.432373
2.037818	2567.775391
2.037939	2523.446045
2.038059	2466.218750
2.038178	2527.782471
2.038299	2416.359863
2.038419	2490.817383
2.038539	2449.116943
2.038659	2459.036621
2.038779	2399.295898
2.038899	2468.548096
2.039020	2429.457520
2.039140	2470.316895
2.039260	2462.177246
2.039380	2497.862061
2.039500	2502.607178
2.039621	2401.696533
2.039741	2476.021240
2.039861	2491.071533
2.039982	2506.116699
2.040102	2371.793457
2.040222	2482.121338
2.040343	2443.098145
2.040463	2427.253662
2.040584	2383.104980
2.040704	2405.872070
2.040825	2469.794922
2.040945	2456.528320
2.041066	2458.697266
2.041186	2486.579590
2.041307	2475.887451
2.041427	2375.228027
2.041548	2472.504883
2.041668	2402.715820
2.041789	2363.781494
2.041910	2458.443115
2.042031	2355.300293
2.042151	2344.641602
2.042272	2495.747559
2.042393	2343.872070
2.042513	2425.624756
2.042634	2453.456787
2.042755	2417.130859
2.042876	2437.258301
2.042997	2434.293213
2.043118	2433.893555
2.043238	2389.901367
2.043359	2474.116211
2.043480	2450.639160
2.043601	2401.539551
2.043722	2390.895020
2.043843	2316.199463
2.043964	2331.189697
2.044085	2466.557373
2.044206	2397.007813
2.044327	2409.416748
2.044448	2391.100586
2.044569	2423.983398
2.044690	2380.078613
2.044812	2374.570068
2.044933	2381.855225
2.045054	2332.862793
2.045175	2365.727783
2.045296	2452.281494
2.045418	2400.744629
2.045539	2362.006104
2.045660	2397.400146
2.045781	2425.116211
2.045903	2294.411865
2.046024	2329.799316
2.046145	2418.813232
2.046267	2405.646973
2.046388	2331.204834
2.046510	2264.445801
2.046631	2320.228760
2.046753	2322.399658
2.046874	2362.844971
2.046995	2464.506592
2.047117	2428.390137
2.047239	2343.827637
2.047360	2450.542236
2.047482	2284.417236
2.047603	2304.435059
2.047725	2357.579834
2.047847	2354.644287
2.047968	2295.655762
2.048090	2300.373291
2.048212	2256.695313
2.048333	2396.389648
2.048455	2263.592285
2.048577	2316.682129
2.048699	2301.029053
2.048820	2338.825439
2.048942	2348.619141
2.049064	2287.174072
2.049186	2291.885498
2.049308	2283.878906
2.049430	2380.132813
2.049551	2265.330811
2.049674	2353.929932
2.049795	2315.418457
2.049917	2330.285156
2.050040	2324.820557
2.050161	2253.307861
2.050283	2293.576660
2.050405	2227.171631
2.050528	2323.291992
2.050650	2302.600342
2.050772	2253.994385
2.050894	2256.161621
2.051016	2314.151855
2.051138	2237.660400
2.051260	2308.317627
2.051383	2226.779785
2.051505	2216.270508
2.051627	2266.613037
2.051749	2266.240479
2.051872	2207.573486
2.051994	2361.791260
2.052116	2260.054932
2.052239	2287.549316
2.052361	2211.187256
2.052484	2241.212891
2.052606	2185.139404
2.052728	2255.665039
2.052851	2212.263672
2.052973	2267.576904
2.053096	2262.143066
2.053218	2173.222900
2.053341	2150.099609
2.053463	2271.143311
2.053586	2220.195557
2.053709	2252.697998
2.053831	2199.242188
2.053954	2173.605713
2.054076	2165.666992
2.054199	2220.896240
2.054322	2326.631348
2.054445	2210.062256
2.054567	2222.325439
2.054690	2209.334961
2.054813	2304.903809
2.054936	2256.565918
2.055058	2243.576172
2.055181	2228.067139
2.055304	2202.471680
2.055427	2161.749756
2.055550	2174.004150
2.055673	2206.427490
2.055796	2195.979248
2.055919	2175.451416
2.056042	2162.491455
2.056165	2152.055420
2.056288	2156.740234
2.056411	2103.483154
2.056534	2145.955322
2.056657	2304.255615
2.056780	2243.446533
2.056903	2202.797607
2.057026	2179.781250
2.057149	2171.872314
2.057273	2191.644531
2.057396	2218.957764
2.057519	2231.169434
2.057642	2223.256836
2.057765	2127.336670
2.057889	2159.670410
2.058012	2159.314697
2.058136	2143.879150
2.058259	2141.013184
2.058382	2087.897705
2.058506	2190.549805
2.058629	2222.840820
2.058753	2094.399902
2.058876	2224.619385
2.058999	2113.793457
2.059123	2115.955322
2.059246	2148.231689
2.059370	2087.656982
2.059494	2072.260254
2.059617	2217.404541
2.059741	2144.308350
2.059864	2113.864502
2.059988	2098.473389
2.060112	2145.755371
2.060235	2182.996338
2.060359	2087.412598
2.060483	2139.683838
2.060606	2129.310791
2.060730	2148.997314
2.060854	2183.702393
2.060978	2140.777344
2.061101	2145.431396
2.061225	2097.520752
2.061349	2119.698242
2.061473	2154.379395
2.061597	2134.010254
2.061721	2143.663818
2.061845	2135.807617
2.061969	2100.448242
2.062093	2150.104248
2.062217	2114.753906
2.062341	2119.403809
2.062465	2034.092407
2.062589	2006.273804
2.062713	2103.367432
2.062837	2098.025391
2.062961	2137.635254
2.063085	2074.862061
2.063210	2099.484131
2.063334	2164.033936
2.063458	2173.659424
2.063582	2105.931152
2.063706	2200.385010
2.063831	2010.451050
2.063955	2072.468018
2.064079	2102.048828
2.064204	2129.126465
2.064328	2138.746094
2.064452	2031.224365
2.064577	2075.743408
2.064701	2025.571411
2.064825	2067.585449
2.064950	2122.038818
2.065074	1977.254517
2.065199	2083.991211
2.065324	2098.583984
2.065448	2138.061768
2.065573	2020.744873
2.065697	2090.080811
2.065822	2027.541382
2.065946	2032.181641
2.066071	1974.646240
2.066195	1951.941406
2.066320	2078.412354
2.066445	2030.840576
2.066570	2030.505493
2.066694	1970.532593
2.066819	2049.711426
2.066944	2044.404907
2.067069	2113.610596
2.067194	2051.179932
2.067318	2021.047119
2.067443	1976.029419
2.067568	2062.574707
2.067693	2163.980957
2.067818	1962.644897
2.067943	2113.650391
2.068068	1996.722656
2.068193	2095.592529
2.068318	2028.297974
2.068443	2072.588135
2.068568	2020.192017
2.068693	2061.990479
2.068818	2118.642822
2.068943	2100.950195
2.069068	1971.792725
2.069193	2001.187744
2.069319	2055.336182
2.069444	2015.382324
2.069569	2037.328857
2.069694	2066.693359
2.069819	1959.941162
2.069945	1954.668945
2.070070	1966.715332
2.070195	1998.545410
2.070321	2017.999634
2.070446	2020.138916
2.070571	1868.999634
2.070697	2024.415161
2.070822	1967.238525
2.070948	1952.087524
2.071073	1922.118042
2.071199	1983.554932
2.071324	2057.320557
2.071450	2002.654541
2.071575	2002.323608
2.071701	1992.118652
2.071826	1974.512451
2.071952	1954.444336
2.072078	1929.448242
2.072203	1958.732422
2.072329	1914.011597
2.072454	1886.568115
2.072580	1873.927856
2.072706	2033.861816
2.072832	1991.622803
2.072958	1996.222534
2.073083	1909.650391
2.073209	1948.753296
2.073335	1835.121704
2.073461	1985.051758
2.073587	1977.336304
2.073713	1930.230957
2.073838	1986.529175
2.073964	1964.049805
2.074090	1914.509033
2.074217	1963.400513
2.074342	1926.176025
2.074469	1876.665771
2.074594	1873.896362
2.074721	1858.833862
2.074847	1915.068970
2.074973	1890.172729
2.075099	1914.435669
2.075225	1862.519043
2.075351	1881.864990
2.075477	1766.105957
2.075603	1834.579956
2.075730	1917.764282
2.075856	1860.979492
2.075982	1880.309326
2.076109	1894.724243
2.076235	1825.701660
2.076361	1891.643921
2.076488	1913.408813
2.076614	1944.977295
2.076741	1885.800903
2.076867	1819.288330
2.076993	1875.371094
2.077120	1840.745972
2.077246	1862.497437
2.077373	1854.838501
2.077499	1915.777710
2.077626	1859.123657
2.077753	1861.265137
2.077879	1895.237915
2.078006	1845.959839
2.078132	1857.893433
2.078259	1847.796387
2.078386	1798.550415
2.078512	1805.592651
2.078639	1964.296631
2.078766	1770.753906
2.078892	1946.528809
2.079019	1892.416992
2.079146	1857.879639
2.079273	1860.016357
2.079400	1815.720581
2.079527	1844.740479
2.079654	1815.119507
2.079780	1846.572266
2.079907	1743.696289
2.080034	1845.960938
2.080161	1745.560303
2.080288	1764.798828
2.080415	1879.211792
2.080542	1813.017090
2.080669	1810.277100
2.080796	1829.491943
2.080923	1804.799805
2.081050	1792.308472
2.081177	1748.125610
2.081305	1764.900146
2.081432	1796.292725
2.081559	1813.053589
2.081686	1746.967896
2.081814	1788.092163
2.081941	1787.796021
2.082068	1792.370483
2.082195	1804.247925
2.082323	1808.818115
2.082450	1827.991089
2.082577	1847.157593
2.082705	1863.884521
2.082832	1780.858276
2.082960	1846.239746
2.083087	1789.996460
2.083215	1811.584839
2.083342	1796.697144
2.083470	1798.830322
2.083597	1686.731689
2.083724	1739.913208
2.083852	1725.046997
2.083980	1843.793945
2.084107	1736.619507
2.084235	1806.756348
2.084363	1740.900024
2.084490	1784.308838
2.084618	1774.304321
2.084746	1786.144287
2.084874	1778.568970
2.085001	1785.552246
2.085129	1739.169556
2.085257	1787.385620
2.085385	1857.408936
2.085513	1760.124512
2.085641	1757.408691
2.085768	1698.950684
2.085896	1812.559814
2.086024	1783.185669
2.086152	1685.993896
2.086280	1775.328369
2.086408	1794.406860
2.086536	1815.900146
2.086664	1791.390991
2.086792	1711.220947
2.086920	1698.837158
2.087049	1725.170898
2.087177	1770.849487
2.087305	1785.068604
2.087433	1700.128906
2.087561	1779.640625
2.087689	1665.718750
2.087818	1795.970581
2.087946	1718.335449
2.088074	1744.630737
2.088202	1700.853638
2.088331	1775.454590
2.088459	1695.458984
2.088587	1750.717773
2.088716	1728.697876
2.088844	1728.411011
2.088973	1745.019287
2.089101	1684.400269
2.089230	1647.929077
2.089358	1775.511841
2.089487	1652.206177
2.089615	1594.054199
2.089744	1728.815674
2.089872	1714.064087
2.090001	1740.293823
2.090129	1737.595093
2.090258	1691.524658
2.090387	1640.651123
2.090515	1741.547607
2.090644	1688.274170
2.090773	1647.058228
2.090901	1531.221069
2.091030	1641.697144
2.091159	1655.865356
2.091288	1725.375488
2.091417	1741.930908
2.091546	1717.585938
2.091674	1678.817871
2.091803	1724.229980
2.091932	1695.091064
2.092061	1714.041504
2.092190	1615.209961
2.092319	1737.504272
2.092448	1713.187866
2.092577	1645.636475
2.092706	1741.442749
2.092835	1654.696289
2.092964	1640.014404
2.093093	1625.337280
2.093223	1709.081055
2.093352	1675.197266
2.093481	1732.509399
2.093610	1703.431274
2.093739	1597.601074
2.093868	1647.702148
2.093998	1695.388428
2.094127	1675.926025
2.094256	1680.442017
2.094386	1591.480835
2.094515	1665.505249
2.094645	1610.120239
2.094774	1643.391235
2.094903	1667.070435
2.095033	1654.819336
2.095162	1623.416870
2.095292	1575.266602
2.095421	1608.515625
2.095551	1627.394165
2.095680	1639.087891
2.095810	1684.271606
2.095939	1698.343872
2.096069	1645.445679
2.096198	1657.128296
2.096328	1532.529175
2.096458	1668.529785
2.096588	1575.040527
2.096717	1617.792480
2.096847	1557.792236
2.096977	1657.865112
2.097106	1616.985718
2.097236	1566.567627
2.097366	1673.752075
2.097496	1690.184570
2.097626	1639.779297
2.097756	1608.482544
2.097886	1570.037842
2.098016	1662.818237
2.098145	1621.991943
2.098275	1576.409424
2.098405	1604.761108
2.098536	1575.885132
2.098665	1589.925171
2.098796	1601.577271
2.098926	1627.522827
2.099056	1612.957153
2.099186	1603.160400
2.099316	1576.694824
2.099446	1605.008423
2.099576	1597.598633
2.099707	1644.943359
