#Wave		#Intensity
1.699584	325.192444
1.699649	382.579346
1.699714	401.638794
1.699779	363.324615
1.699844	377.601013
1.699908	310.630646
1.699973	324.911224
1.700038	449.064301
1.700103	391.669189
1.700168	401.152710
1.700233	405.858124
1.700298	429.657806
1.700363	434.356689
1.700428	372.241364
1.700493	415.120483
1.700558	353.029968
1.700623	481.754883
1.700688	433.981354
1.700753	376.687927
1.700818	390.924957
1.700883	395.623962
1.700948	386.024139
1.701013	428.841614
1.701078	400.183014
1.701143	442.983215
1.701208	385.757446
1.701273	404.737274
1.701338	499.883209
1.701403	366.517700
1.701468	428.323334
1.701534	442.524353
1.701599	418.660400
1.701664	371.021301
1.701729	351.933807
1.701794	480.259155
1.701859	413.617157
1.701925	423.052551
1.701990	361.196014
1.702055	460.920624
1.702120	413.331696
1.702186	441.761078
1.702251	398.941162
1.702316	465.351044
1.702381	351.326904
1.702447	417.722076
1.702512	398.665924
1.702577	384.361542
1.702643	408.017181
1.702708	474.356781
1.702773	388.905487
1.702839	412.548065
1.702904	384.030243
1.702969	459.808777
1.703035	402.855774
1.703100	454.911621
1.703166	379.027649
1.703231	450.017761
1.703297	412.050507
1.703362	454.598053
1.703427	374.031860
1.703493	430.772583
1.703558	449.630157
1.703624	373.838562
1.703689	440.012604
1.703755	444.667297
1.703820	472.968842
1.703886	406.683136
1.703952	368.788635
1.704017	378.179596
1.704083	444.284515
1.704148	392.226227
1.704214	420.507507
1.704280	514.914917
1.704345	467.594513
1.704411	401.400909
1.704476	424.939575
1.704542	429.587189
1.704608	490.872284
1.704674	415.281982
1.704739	457.675232
1.704805	500.053894
1.704871	410.350983
1.704936	419.712097
1.705002	485.650665
1.705068	466.710144
1.705134	428.922424
1.705199	475.974854
1.705265	442.910309
1.705331	471.100159
1.705397	423.917236
1.705463	452.100616
1.705528	475.565765
1.705594	367.205444
1.705660	451.867493
1.705726	376.491516
1.705792	475.238831
1.705858	461.043549
1.705924	493.890350
1.705989	460.885101
1.706056	451.401703
1.706121	357.298279
1.706187	479.449493
1.706253	404.172272
1.706319	483.983643
1.706385	507.390839
1.706451	389.872253
1.706517	455.555603
1.706583	539.998901
1.706649	469.483643
1.706715	478.791077
1.706781	459.935974
1.706847	469.241821
1.706913	478.544495
1.706980	478.462341
1.707046	511.210205
1.707112	511.122467
1.707178	440.708862
1.707244	435.945618
1.707310	482.738647
1.707376	431.110046
1.707443	477.887817
1.707509	482.490173
1.707575	402.786743
1.707641	444.862518
1.707707	407.330536
1.707773	397.898346
1.707840	496.117523
1.707906	566.225708
1.707972	430.444885
1.708038	425.693115
1.708105	416.265839
1.708171	476.986908
1.708237	439.500793
1.708303	476.823364
1.708370	532.828857
1.708436	462.640503
1.708503	448.544189
1.708569	453.138855
1.708635	481.085571
1.708702	513.692688
1.708768	527.612061
1.708834	527.521606
1.708901	513.428650
1.708967	522.674133
1.709034	522.584595
1.709100	513.164795
1.709167	452.440552
1.709233	424.381836
1.709299	470.936523
1.709366	517.475281
1.709432	540.692383
1.709499	475.354980
1.709566	493.911774
1.709632	517.120911
1.709699	493.742645
1.709765	558.858276
1.709832	498.229980
1.709898	479.522461
1.709965	488.749908
1.710032	460.742493
1.710098	488.582642
1.710165	507.108521
1.710231	502.370178
1.710298	502.284210
1.710365	460.348419
1.710431	474.217255
1.710498	474.136108
1.710565	525.178589
1.710631	492.561157
1.710698	520.352966
1.710765	520.263977
1.710832	510.886139
1.710898	487.580658
1.710965	506.068634
1.711032	543.118408
1.711099	552.308044
1.711165	496.528198
1.711232	589.236450
1.711299	463.886414
1.711366	496.273621
1.711433	496.188812
1.711500	570.287781
1.711566	533.104797
1.711633	486.664673
1.711700	449.508636
1.711767	430.898590
1.711834	560.535706
1.711901	523.386047
1.711968	514.034790
1.712035	541.727905
1.712102	513.859192
1.712169	486.000000
1.712236	601.611511
1.712303	439.564117
1.712370	536.639282
1.712437	518.046021
1.712504	499.459076
1.712571	457.759338
1.712638	522.403748
1.712705	531.559082
1.712772	494.496674
1.712839	485.170929
1.712906	591.345520
1.712973	609.721008
1.713040	563.433838
1.713107	494.074860
1.713175	526.307739
1.713242	590.841187
1.713309	586.125244
1.713376	442.979706
1.713443	572.084534
1.713511	544.310120
1.713578	613.397461
1.713645	557.958191
1.713712	525.589966
1.713779	659.180237
1.713847	539.237305
1.713914	534.537292
1.713981	552.875366
1.714048	520.535522
1.714116	538.869690
1.714183	483.518585
1.714250	584.727539
1.714318	497.163879
1.714385	543.104980
1.714453	575.225037
1.714520	579.728027
1.714587	515.226013
1.714655	662.320557
1.714722	579.431763
1.714789	537.952148
1.714857	547.054688
1.714924	574.539368
1.714992	592.823669
1.715059	569.748962
1.715127	542.088135
1.715194	523.623047
1.715262	592.419922
1.715329	573.952576
1.715397	573.854858
1.715464	559.987000
1.715532	500.231049
1.715599	564.384827
1.715667	564.288757
1.715734	591.714294
1.715802	609.958191
1.715870	568.586060
1.715937	614.335205
1.716005	522.554443
1.716073	600.377075
1.716140	540.705627
1.716208	627.661621
1.716275	618.393433
1.716343	554.169434
1.716411	522.021240
1.716478	553.980957
1.716546	563.041870
1.716614	604.137268
1.716682	608.610596
1.716749	603.931824
1.716817	580.956848
1.716885	608.300171
1.716953	621.915466
1.717021	598.949097
1.717088	626.275391
1.717156	575.892578
1.717224	616.922913
1.717292	621.387024
1.717360	630.417908
1.717427	607.473450
1.717495	621.070313
1.717563	648.360291
1.717631	698.466675
1.717699	552.288269
1.717767	588.703186
1.717835	629.668518
1.717903	588.503174
1.717971	638.577148
1.718039	624.787170
1.718107	569.964478
1.718175	647.369690
1.718243	560.654602
1.718311	587.903748
1.718379	610.586975
1.718447	615.039185
1.718515	596.714478
1.718583	628.493225
1.718651	637.493591
1.718719	591.857849
1.718787	605.413330
1.718855	559.798523
1.718923	627.960022
1.718992	718.846741
1.719060	650.491394
1.719128	563.966736
1.719196	613.891846
1.719264	700.172668
1.719332	504.584259
1.719401	704.480103
1.719469	627.108154
1.719537	654.262756
1.719605	635.980896
1.719674	617.705200
1.719742	694.800537
1.719810	640.197754
1.719878	680.945984
1.719947	649.058411
1.720015	612.643555
1.720083	603.465027
1.720152	630.582092
1.720220	689.440491
1.720288	612.228210
1.720357	671.069763
1.720425	670.955994
1.720493	666.309570
1.720562	625.409119
1.720630	607.178406
1.720699	656.910034
1.720767	688.506287
1.720835	634.043091
1.720904	661.104309
1.720972	670.046997
1.721041	624.667725
1.721109	665.294189
1.721178	642.556274
1.721246	619.826050
1.721315	646.862183
1.721383	655.798096
1.721452	669.252991
1.721520	678.182068
1.721589	673.546814
1.721658	754.787048
1.721726	623.610657
1.721795	591.877991
1.721864	623.399536
1.721932	659.427002
1.722001	645.767822
1.722069	699.839661
1.722138	681.663879
1.722207	663.494263
1.722275	627.279541
1.722344	685.829895
1.722413	618.044739
1.722481	663.045288
1.722550	717.050110
1.722619	703.401794
1.722688	694.266357
1.722756	667.104187
1.722825	703.044922
1.722894	693.914124
1.722963	657.755371
1.723032	635.122070
1.723101	720.584045
1.723169	670.930420
1.723238	612.289307
1.723307	666.202209
1.723376	688.592590
1.723445	719.975098
1.723514	670.363464
1.723583	652.256836
1.723651	692.624634
1.723720	719.488403
1.723789	602.469727
1.723858	696.768799
1.723927	719.123718
1.723996	727.989685
1.724065	705.401672
1.724134	745.712708
1.724203	664.739929
1.724272	714.025635
1.724341	749.824768
1.724410	632.978638
1.724479	700.198486
1.724549	632.764832
1.724618	708.935852
1.724687	767.136475
1.724756	645.900574
1.724825	722.030762
1.724894	641.198547
1.724963	663.506042
1.725032	753.041870
1.725101	645.355469
1.725171	694.536194
1.725240	680.978577
1.725309	716.698547
1.725378	743.449219
1.725447	765.713013
1.725517	711.858643
1.725586	747.549255
1.725655	787.703369
1.725724	689.124146
1.725794	706.904175
1.725863	715.731567
1.725932	733.501099
1.726002	711.018250
1.726071	697.485168
1.726140	777.832947
1.726210	733.006287
1.726279	697.132263
1.726348	679.142517
1.726418	679.027954
1.726487	768.244202
1.726557	763.648865
1.726626	683.149536
1.726696	687.498657
1.726765	638.283997
1.726834	731.894592
1.726904	660.378906
1.726973	678.112610
1.727043	731.524536
1.727112	637.746155
1.727182	771.409058
1.727251	713.321655
1.727321	766.691528
1.727390	713.081238
1.727460	744.153137
1.727530	761.848755
1.727599	819.628967
1.727669	721.508301
1.727738	699.121704
1.727808	707.908447
1.727878	787.916321
1.727947	769.980530
1.728017	805.450928
1.728087	734.127136
1.728156	787.385620
1.728226	742.775452
1.728296	800.461487
1.728365	795.880432
1.728435	760.182312
1.728505	786.722900
1.728575	675.490112
1.728644	750.911926
1.728714	795.210693
1.728784	763.984436
1.728854	750.532776
1.728923	790.368896
1.728993	834.631165
1.729063	767.908997
1.729133	789.969971
1.729203	838.647156
1.729273	776.394470
1.729343	723.034363
1.729412	745.087952
1.729482	789.305603
1.729552	837.941895
1.729622	780.174438
1.729692	797.771423
1.729762	753.324097
1.729832	793.072510
1.729902	881.535706
1.729972	770.660400
1.730042	783.815796
1.730112	757.118469
1.730182	801.259644
1.730252	787.846558
1.730322	796.564819
1.730392	752.184753
1.730462	787.449280
1.730532	782.893799
1.730602	800.451721
1.730672	756.100769
1.730743	738.290100
1.730813	800.048218
1.730883	795.494324
1.730953	729.080566
1.731023	808.480774
1.731093	790.676208
1.731164	843.540649
1.731234	830.151794
1.731304	852.087158
1.731374	807.801819
1.731444	900.349121
1.731515	750.164917
1.731585	851.514771
1.731655	882.250488
1.731725	873.281311
1.731796	846.676025
1.731866	850.942871
1.731936	802.308777
1.732007	824.211792
1.732077	894.582397
1.732147	788.686523
1.732218	748.906128
1.732288	814.849243
1.732358	757.462402
1.732429	854.203735
1.732499	801.231873
1.732570	827.507202
1.732640	822.967407
1.732710	849.230225
1.732781	862.285950
1.732851	914.925415
1.732922	826.813049
1.732992	875.043579
1.733063	848.517944
1.733133	782.439636
1.733204	931.738098
1.733274	843.696716
1.733345	799.619995
1.733416	817.057007
1.733486	922.328979
1.733557	860.695984
1.733627	834.208252
1.733698	847.237854
1.733769	860.263062
1.733839	846.953735
1.733910	859.974548
1.733980	921.246826
1.734051	947.409302
1.734122	894.625427
1.734193	850.628601
1.734263	955.700806
1.734334	872.259521
1.734405	894.025696
1.734475	850.058411
1.734546	920.012146
1.734617	836.632690
1.734688	854.010681
1.734758	871.382751
1.734829	901.883301
1.734900	805.430664
1.734971	879.698059
1.735042	875.174805
1.735113	971.281250
1.735183	826.763062
1.735254	914.098083
1.735325	944.555542
1.735396	988.119446
1.735467	904.895874
1.735538	952.822510
1.735609	874.002686
1.735680	873.856323
1.735751	882.447083
1.735822	882.299316
1.735893	930.189575
1.735964	890.736633
1.736035	873.125000
1.736106	886.073486
1.736177	877.196838
1.736248	872.686584
1.736319	916.167542
1.736390	933.462036
1.736461	885.332153
1.736532	902.626038
1.736603	850.157593
1.736674	841.297180
1.736745	937.039551
1.736817	827.942871
1.736888	936.726013
1.736959	975.774475
1.737030	875.436890
1.737101	888.354431
1.737172	875.143982
1.737244	970.768494
1.737315	896.613708
1.737386	939.981384
1.737457	922.419983
1.737528	922.265747
1.737600	909.062744
1.737671	965.445862
1.737742	900.062500
1.737814	886.869751
1.737885	978.001648
1.737956	903.957031
1.738028	1008.091187
1.738099	894.965820
1.738170	916.535034
1.738242	899.009644
1.738313	985.705688
1.738384	1024.615234
1.738456	911.581543
1.738527	998.231934
1.738599	972.028625
1.738670	1023.930420
1.738742	902.296387
1.738813	863.110474
1.738885	988.725159
1.738956	927.858887
1.739028	966.719421
1.739099	949.220581
1.739171	992.398193
1.739242	1031.228394
1.739314	896.758911
1.739385	918.266357
1.739457	983.073792
1.739528	1000.229614
1.739600	1008.721130
1.739672	952.281494
1.739743	1025.695557
1.739815	1034.178467
1.739887	969.110046
1.739958	1007.879211
1.740030	960.136597
1.740101	903.761475
1.740173	1003.050964
1.740245	976.946899
1.740317	911.953003
1.740388	1015.512756
1.740460	1075.831787
1.740532	881.257263
1.740604	1023.642700
1.740675	988.924255
1.740747	1062.160645
1.740819	1061.983398
1.740891	971.164124
1.740963	1048.682251
1.741034	1143.433838
1.741106	1013.819336
1.741178	1017.963623
1.741250	1056.608032
1.741322	970.192383
1.741394	1000.209290
1.741466	1034.526733
1.741538	939.538330
1.741610	1120.363403
1.741681	1064.167725
1.741753	1003.683105
1.741825	1020.743469
1.741897	1046.410522
1.741969	1016.097595
1.742041	1020.232971
1.742113	1071.711548
1.742185	1054.319580
1.742257	1079.959595
1.742329	1071.175659
1.742401	1139.816162
1.742474	1139.626221
1.742546	1031.942261
1.742618	1104.854004
1.742690	997.211670
1.742762	979.855042
1.742834	1082.817261
1.742906	1086.932983
1.742978	1035.206299
1.743051	1142.402466
1.743123	1047.743408
1.743195	1081.915405
1.743267	1047.394287
1.743340	1030.052246
1.743412	1038.463013
1.743484	1016.837769
1.743556	1059.565796
1.743629	1089.412476
1.743701	1235.033569
1.743773	1071.899292
1.743845	1114.589600
1.743918	1101.545410
1.743990	1084.220215
1.744062	981.205811
1.744135	1135.267456
1.744207	1092.245239
1.744280	1070.650391
1.744352	1113.291016
1.744424	1117.386841
1.744497	1134.322754
1.744569	1087.056641
1.744642	1176.735474
1.744714	1116.643066
1.744786	1129.290039
1.744859	1009.348816
1.744931	1133.190308
1.745004	1081.696045
1.745076	1115.714111
1.745149	1145.446899
1.745221	1123.889526
1.745294	1072.430908
1.745367	1127.787476
1.745439	1131.871094
1.745512	1174.387817
1.745584	1212.620605
1.745657	1041.655640
1.745729	1143.923218
1.745802	1130.929932
1.745875	1194.746094
1.745947	1113.488770
1.746020	1177.286621
1.746093	1270.916870
1.746166	1181.159180
1.746238	1117.011719
1.746311	1210.605225
1.746384	1103.854248
1.746456	1048.274170
1.746529	1171.656372
1.746602	1120.343262
1.746675	1188.303467
1.746747	1166.813721
1.746820	1124.042358
1.746893	1221.767212
1.746966	1115.156006
1.747039	1080.925781
1.747112	1127.550049
1.747184	1135.871094
1.747257	1173.963745
1.747330	1071.701782
1.747403	1092.784180
1.747476	1075.597046
1.747549	1198.687622
1.747622	1185.738647
1.747695	1194.040161
1.747768	1083.379517
1.747841	1214.882568
1.747914	1218.927979
1.747987	1184.754028
1.748060	1205.785889
1.748133	1137.665283
1.748206	1141.720581
1.748279	1192.454346
1.748352	1226.199463
1.748425	1166.605103
1.748498	1183.377319
1.748571	1204.384766
1.748644	1225.385254
1.748717	1165.830322
1.748791	1267.365112
1.748864	1250.202759
1.748937	1127.114380
1.749010	1143.873535
1.749083	1194.514038
1.749156	1321.370605
1.749229	1316.916748
1.749303	1168.516724
1.749376	1181.021973
1.749449	1333.190552
1.749522	1218.714844
1.749596	1239.667236
1.749669	1205.619629
1.749742	1239.255859
1.749816	1247.507935
1.749889	1234.616577
1.749962	1365.462280
1.750035	1268.020752
1.750109	1204.419922
1.750182	1297.177368
1.750256	1263.165161
1.750329	1157.357300
1.750402	1271.192627
1.750476	1241.424072
1.750549	1262.327271
1.750623	1312.771484
1.750696	1283.010742
1.750769	1219.501953
1.750843	1206.642700
1.750916	1290.809204
1.750990	1400.253540
1.751063	1294.598145
1.751137	1344.978271
1.751211	1281.522217
1.751284	1264.450439
1.751358	1302.168091
1.751431	1205.043091
1.751505	1335.438232
1.751578	1272.036255
1.751652	1276.036743
1.751725	1258.982666
1.751799	1254.564087
1.751873	1338.541138
1.751946	1334.110718
1.752020	1266.563965
1.752094	1190.625366
1.752167	1350.273438
1.752241	1303.786377
1.752315	1349.826050
1.752389	1358.011108
1.752462	1366.193481
1.752536	1340.749268
1.752610	1340.527222
1.752684	1365.514648
1.752757	1348.484863
1.752831	1306.259644
1.752905	1314.442261
1.752979	1293.230469
1.753053	1402.166992
1.753127	1263.420288
1.753200	1363.932251
1.753274	1342.726196
1.753348	1317.331909
1.753422	1283.556763
1.753496	1379.804810
1.753570	1346.030396
1.753644	1291.304443
1.753718	1295.282471
1.753792	1353.744263
1.753866	1361.901123
1.753940	1332.347168
1.754014	1281.857788
1.754088	1432.427368
1.754162	1348.436523
1.754236	1373.335327
1.754310	1276.822998
1.754384	1339.395874
1.754458	1447.982056
1.754532	1305.478760
1.754606	1388.933472
1.754680	1380.337891
1.754754	1438.659546
1.754828	1413.332764
1.754902	1425.641235
1.754977	1429.585449
1.755051	1412.631470
1.755125	1341.359985
1.755199	1395.452148
1.755273	1445.348999
1.755347	1361.577515
1.755422	1403.111572
1.755496	1377.828125
1.755570	1331.680176
1.755645	1360.677002
1.755719	1352.105591
1.755793	1422.814087
1.755867	1430.922363
1.755942	1380.632568
1.756016	1422.108398
1.756090	1567.813354
1.756165	1492.511597
1.756239	1454.749878
1.756314	1408.665161
1.756388	1412.599243
1.756462	1479.026123
1.756537	1428.794556
1.756611	1353.590332
1.756685	1399.172852
1.756760	1361.469971
1.756834	1469.478516
1.756909	1460.911377
1.756983	1439.862671
1.757058	1493.714600
1.757132	1526.748413
1.757207	1526.496094
1.757281	1463.863403
1.757356	1467.779541
1.757431	1455.064941
1.757505	1458.981201
1.757580	1546.015259
1.757654	1504.207153
1.757729	1429.176147
1.757804	1491.248535
1.757878	1540.840698
1.757953	1590.416504
1.758028	1399.169189
1.758102	1452.903076
1.758177	1402.857544
1.758252	1460.722778
1.758326	1477.078003
1.758401	1539.060181
1.758476	1555.396973
1.758550	1530.257813
1.758625	1509.273438
1.758700	1496.587158
1.758775	1512.920044
1.758850	1558.257568
1.758924	1458.553467
1.758999	1495.599121
1.759074	1478.783203
1.759149	1519.954712
1.759224	1532.126465
1.759298	1486.331421
1.759373	1444.690918
1.759448	1626.561035
1.759523	1597.325562
1.759598	1510.175171
1.759673	1551.293823
1.759748	1555.173828
1.759823	1658.302734
1.759898	1571.199585
1.759973	1690.827881
1.760048	1566.547729
1.760123	1512.564331
1.760198	1508.182739
1.760273	1594.691772
1.760348	1639.865845
1.760423	1668.505005
1.760498	1552.609863
1.760573	1676.211792
1.760648	1510.818604
1.760723	1626.132080
1.760798	1559.838867
1.760874	1567.833374
1.760949	1604.701538
1.761024	1497.199463
1.761099	1562.933960
1.761174	1587.415161
1.761249	1578.908447
1.761325	1669.327637
1.761400	1611.356812
1.761475	1619.331909
1.761550	1627.304443
1.761626	1614.678955
1.761701	1688.543945
1.761776	1745.913696
1.761851	1659.167969
1.761927	1527.170898
1.762002	1658.621094
1.762077	1629.542603
1.762153	1711.560547
1.762228	1616.664551
1.762303	1624.624023
1.762379	1661.366943
1.762454	1648.758301
1.762529	1677.263184
1.762605	1676.986816
1.762680	1746.573364
1.762756	1717.523193
1.762831	1717.240234
1.762907	1597.838257
1.762982	1614.002563
1.763058	1617.842773
1.763133	1601.154175
1.763209	1654.253418
1.763284	1686.814331
1.763360	1666.018921
1.763435	1604.202271
1.763511	1710.593750
1.763586	1677.500244
1.763662	1677.223999
1.763738	1631.846436
1.763813	1725.864868
1.763889	1696.889282
1.763964	1774.473511
1.764040	1725.012329
1.764116	1716.534790
1.764191	1744.924683
1.764267	1728.255737
1.764343	1658.360962
1.764419	1653.993896
1.764494	1776.522705
1.764570	1747.581421
1.764646	1735.017578
1.764722	1681.544434
1.764797	1681.267700
1.764873	1783.240967
1.764949	1578.480957
1.765025	1639.551025
1.765100	1733.304810
1.765176	1704.408325
1.765252	1765.427368
1.765328	1658.901855
1.765404	1703.567017
1.765480	1760.471313
1.765556	1764.265625
1.765632	1780.308472
1.765708	1767.767700
1.765783	1869.525146
1.765859	1783.511108
1.765935	1742.411743
1.766011	1864.522705
1.766087	1749.996948
1.766163	1810.887817
1.766239	1688.252686
1.766315	1814.369263
1.766391	1740.692749
1.766467	1899.366211
1.766544	1772.721924
1.766620	1890.592407
1.766696	1796.582153
1.766772	1731.115234
1.766848	1844.861816
1.766924	1820.127197
1.767000	1803.543091
1.767076	1856.163452
1.767152	1811.089722
1.767229	1794.515137
1.767305	1863.385010
1.767381	1793.925171
1.767457	1781.428589
1.767533	1984.461792
1.767610	1833.698975
1.767686	1861.853882
1.767762	1857.483276
1.767838	1938.454956
1.767915	1917.820435
1.767991	1880.942627
1.768067	1876.571533
1.768144	1847.834961
1.768220	1867.833740
1.768296	1912.185059
1.768373	1773.858887
1.768449	1919.673706
1.768525	1797.623047
1.768602	1797.327637
1.768678	1849.766968
1.768755	1914.356445
1.768831	1982.979858
1.768908	1942.109009
1.768984	1864.766968
1.769060	1949.577271
1.769137	1908.731934
1.769214	1880.055420
1.769290	1944.565430
1.769367	1948.296509
1.769443	1939.876831
1.769520	1971.951660
1.769596	2048.549561
1.769673	2072.500244
1.769749	2039.782349
1.769826	2027.307861
1.769903	1848.957153
1.769979	2002.370850
1.770056	1925.196045
1.770132	2017.888794
1.770209	1977.125366
1.770286	1932.332886
1.770362	1980.518066
1.770439	1907.451172
1.770516	2157.651855
1.770593	1947.223755
1.770669	2112.511963
1.770746	1857.736206
1.770823	1954.340698
1.770900	1970.168823
1.770976	2086.906006
1.771053	1969.522095
1.771130	2070.079834
1.771207	2021.325195
1.771284	1968.552490
1.771361	1927.896851
1.771437	1963.873779
1.771514	2052.254150
1.771591	1943.072998
1.771668	2011.274536
1.771745	2063.333740
1.771822	1970.321655
1.771899	2058.628174
1.771976	1969.675049
1.772053	2146.553467
1.772130	2101.908203
1.772207	2073.381348
1.772284	2081.091797
1.772361	2076.725830
1.772438	1979.809082
1.772515	2039.834473
1.772592	2099.840088
1.772669	2031.121338
1.772746	2111.215332
1.772823	2090.765625
1.772900	2118.562988
1.772977	2086.060547
1.773054	1957.119263
1.773132	2109.484863
1.773209	1928.355591
1.773286	2217.245117
1.773363	2116.479492
1.773440	2112.116943
1.773517	2268.346680
1.773595	2099.382080
1.773672	2267.603027
1.773749	2170.924072
1.773826	2162.543945
1.773904	2166.200928
1.773981	2093.650879
1.774058	2257.724609
1.774136	2104.993164
1.774213	2236.940186
1.774290	2136.368652
1.774368	2111.973145
1.774445	2027.482544
1.774522	2239.480225
1.774600	2146.985107
1.774677	2110.589111
1.774755	2234.375000
1.774832	2157.940430
1.774909	2249.654541
1.774987	2249.285889
1.775064	2232.910889
1.775142	2052.500977
1.775219	2180.175049
1.775297	2099.824463
1.775374	2167.463623
1.775452	2235.080566
1.775529	2258.700684
1.775607	2166.398682
1.775684	2217.996826
1.775762	2237.612061
1.775840	2397.048828
1.775917	2248.862305
1.775995	2124.687012
1.776072	2411.843750
1.776150	2155.930908
1.776228	2243.397705
1.776305	2147.242432
1.776383	2310.501465
1.776461	2282.194092
1.776538	2341.658203
1.776616	2213.641357
1.776694	2257.145752
1.776772	2240.827148
1.776849	2340.125000
1.776927	2307.854248
1.777005	2323.417480
1.777083	2406.714355
1.777161	2338.592773
1.777238	2242.610107
1.777316	2389.601807
1.777394	2484.779053
1.777472	2388.819580
1.777550	2328.717773
1.777628	2320.376465
1.777706	2319.996582
1.777783	2375.319580
1.777861	2331.171631
1.777939	2446.136230
1.778017	2433.805664
1.778095	2294.241943
1.778173	2480.715088
1.778251	2428.635986
1.778329	2384.522461
1.778407	2400.026367
1.778485	2411.552490
1.778563	2395.268799
1.778641	2402.820068
1.778719	2461.991211
1.778797	2402.033936
1.778875	2342.095947
1.778953	2448.875977
1.779032	2567.526123
1.779110	2503.622803
1.779188	2546.850830
1.779266	2451.240479
1.779344	2585.675293
1.779422	2609.042969
1.779500	2450.037598
1.779579	2517.021729
1.779657	2603.799805
1.779735	2452.798340
1.779813	2464.282715
1.779892	2463.879639
1.779970	2562.490967
1.780048	2470.993652
1.780126	2462.671143
1.780205	2537.482422
1.780283	2600.395264
1.780361	2548.524658
1.780440	2559.978027
1.780518	2440.878174
1.780596	2551.230225
1.780675	2495.446533
1.780753	2601.799316
1.780832	2633.001709
1.780910	2640.476807
1.780988	2442.437012
1.781067	2588.243896
1.781145	2607.575195
1.781224	2532.094727
1.781302	2555.378174
1.781381	2622.092529
1.781459	2507.163574
1.781538	2585.706543
1.781616	2490.556152
1.781695	2596.700439
1.781773	2694.918945
1.781852	2651.082764
1.781931	2615.149902
1.782009	2733.035645
1.782088	2634.010742
1.782166	2582.328125
1.782245	2629.208252
1.782324	2605.131592
1.782402	2521.954346
1.782481	2627.919678
1.782560	2796.878906
1.782638	2627.061035
1.782717	2567.562256
1.782796	2708.886963
1.782875	2602.153809
1.782953	2692.257813
1.783032	2648.528564
1.783111	2687.443604
1.783190	2765.687012
1.783268	2710.166504
1.783347	2737.253662
1.783426	2677.823730
1.783505	2763.880615
1.783584	2818.461914
1.783663	2700.093506
1.783742	2644.637939
1.783820	2777.791504
1.783899	2757.696045
1.783978	2859.365967
1.784057	2784.285156
1.784136	2917.328613
1.784215	2787.301758
1.784294	2830.022949
1.784373	2833.485596
1.784452	2860.489746
1.784531	2773.712158
1.784610	2769.336670
1.784689	2843.401367
1.784768	2839.015869
1.784847	2964.013428
1.784926	2720.488770
1.785005	2727.883301
1.785084	2703.925781
1.785164	2824.945313
1.785243	2992.934814
1.785322	2933.694092
1.785401	2984.125488
1.785480	2838.763672
1.785559	2908.768555
1.785638	2974.836182
1.785718	2880.423828
1.785797	2762.564453
1.785876	2785.587646
1.785955	2875.102295
1.786035	2909.832764
1.786114	2921.089111
1.786193	2877.604980
1.786273	2822.407227
1.786352	3013.463867
1.786431	3083.313965
1.786510	2922.614258
1.786590	2793.219727
1.786669	2980.250244
1.786748	2999.290771
1.786828	2858.232666
1.786907	3099.817627
1.786987	2911.947998
1.787066	2923.181396
1.787146	3016.355957
1.787225	3011.962402
1.787304	3011.471191
1.787384	2987.578613
1.787463	2998.790283
1.787543	3111.371094
1.787622	2970.523926
1.787702	2993.425537
1.787781	3016.319824
1.787861	3035.310059
1.787941	3062.085449
1.788020	3100.537598
1.788100	3041.614502
1.788179	3122.889893
1.788259	3278.110352
1.788339	3102.408691
1.788418	3055.198975
1.788498	3128.636475
1.788578	2988.061035
1.788657	3053.705078
1.788737	3099.880371
1.788817	3114.930420
1.788896	3196.074219
1.788976	3067.264404
1.789056	3097.859619
1.789136	3116.786133
1.789215	3100.735596
1.789295	2968.140137
1.789375	3181.296631
1.789455	3235.150391
1.789535	3164.727295
1.789614	3109.856934
1.789694	3136.522949
1.789774	3271.854004
1.789854	3348.932129
1.789934	3259.147705
1.790014	3270.254639
1.790094	3386.082031
1.790174	3265.311035
1.790254	3350.082031
1.790334	3349.536133
1.790413	3275.343506
1.790493	3247.681396
1.790573	3355.648926
1.790653	3343.479492
1.790734	3342.934814
1.790814	3140.994629
1.790894	3268.270752
1.790974	3341.301270
1.791054	3201.397461
1.791134	3344.083252
1.791214	3270.011719
1.791294	3284.955811
1.791374	3357.923828
1.791454	3307.093506
1.791534	3244.677734
1.791615	3456.817139
1.791695	3243.621094
1.791775	3246.958252
1.791855	3447.398926
1.791935	3388.875000
1.792016	3620.135254
1.792096	3445.714844
1.792176	3325.423096
1.792256	3324.881592
1.792337	3486.503174
1.792417	3397.146484
1.792497	3330.977295
1.792578	3457.786377
1.792658	3461.082031
1.792738	3379.502930
1.792819	3432.954346
1.792899	3459.391846
1.792979	3451.116699
1.793060	3485.253174
1.793140	3442.283691
1.793221	3418.598633
1.793301	3518.232666
1.793381	3583.158691
1.793462	3536.348633
1.793542	3404.818604
1.793623	3408.115234
1.793703	3453.764893
1.793784	3607.191650
1.793864	3468.037109
1.793945	3575.229736
1.794026	3509.234619
1.794106	3581.760742
1.794187	3546.558350
1.794267	3649.822510
1.794348	3660.764404
1.794428	3587.119141
1.794509	3605.755859
1.794590	3724.316650
1.794670	3543.097168
1.794751	3615.522705
1.794832	3599.568115
1.794912	3537.527100
1.794993	3694.405518
1.795074	3586.292480
1.795155	3620.260742
1.795235	3715.633545
1.795316	3684.326172
1.795397	3691.401367
1.795478	3855.774170
1.795559	3648.004883
1.795639	3766.307129
1.795720	3604.636230
1.795801	3772.750000
1.795882	3864.139893
1.795963	3668.036133
1.796044	3675.104004
1.796125	3731.980225
1.796205	3815.654785
1.796286	3700.123535
1.796367	3802.924561
1.796448	3737.211182
1.796529	3614.091797
1.796610	3954.184082
1.796691	3903.787109
1.796772	3738.607666
1.796853	3803.041504
1.796934	3783.296387
1.797015	3828.578125
1.797096	3915.910645
1.797177	3785.274658
1.797258	3884.054443
1.797340	3929.290039
1.797421	3825.466797
1.797502	3828.666016
1.797583	3927.374023
1.797664	3831.240967
1.797745	3880.267334
1.797826	4055.289307
1.797908	4008.815186
1.797989	4073.057617
1.798070	3931.178467
1.798151	3991.596191
1.798232	4006.209229
1.798314	3982.669189
1.798395	3917.180420
1.798476	3969.934082
1.798558	3946.410889
1.798639	3938.145020
1.798720	4017.551025
1.798802	3971.165039
1.798883	4027.676758
1.798964	4091.789795
1.799046	3980.656982
1.799127	4075.225586
1.799208	4074.563477
1.799290	4085.323486
1.799371	4008.524414
1.799453	4072.577637
1.799534	4030.054932
1.799616	4025.595215
1.799697	4123.853027
1.799778	4149.808594
1.799860	3966.587646
1.799942	4099.028809
1.800023	4159.191895
1.800105	4010.269287
1.800186	4176.843750
1.800268	4187.564941
1.800349	4080.502930
1.800431	4057.047607
1.800513	4086.773438
1.800594	4298.769531
1.800676	4210.743164
1.800757	4236.633301
1.800839	4224.558105
1.800921	4151.766113
1.801003	4211.802734
1.801084	4351.489258
1.801166	4301.471191
1.801248	4278.017090
1.801329	4254.570801
1.801411	4242.505859
1.801493	4298.677734
1.801575	4252.498047
1.801656	4248.018066
1.801738	4326.895020
1.801820	4307.250977
1.801902	4192.922363
1.801984	4374.019043
1.802066	4259.716309
1.802148	4289.311035
1.802229	4216.695801
1.802311	4492.285156
1.802393	4321.277832
1.802475	4437.859863
1.802557	4391.746582
1.802639	4307.827148
1.802721	4454.606445
1.802803	4446.321289
1.802885	4479.622070
1.802967	4456.216797
1.803049	4576.422852
1.803131	4292.297852
1.803213	4431.380371
1.803295	4392.889160
1.803377	4550.792969
1.803459	4425.446777
1.803541	4662.576660
1.803623	4556.126953
1.803706	4498.775391
1.803788	4437.668945
1.803870	4768.965332
1.803952	4711.606445
1.804034	4571.289551
1.804116	4645.969238
1.804199	4645.215332
1.804281	4602.993164
1.804363	4523.092285
1.804445	4541.201172
1.804528	4638.433105
1.804610	4758.237305
1.804692	4746.165039
1.804775	4651.240234
1.804857	4477.269043
1.804939	4608.316406
1.805022	4739.321289
1.805104	4704.678711
1.805186	4790.467285
1.805269	4699.389648
1.805351	4600.817871
1.805434	4979.962891
1.805516	4723.427734
1.805598	4771.542969
1.805681	4842.198730
1.805763	4691.058594
1.805846	4799.287109
1.805928	4982.633301
1.806011	4767.674316
1.806093	4729.336426
1.806176	4867.534668
1.806258	4893.031738
1.806341	4783.354492
1.806423	4677.467285
1.806506	4871.884277
1.806589	4878.599609
1.806671	4874.056641
1.806754	4730.707031
1.806836	4985.003906
1.806919	4999.197266
1.807002	4990.886719
1.807084	4978.830078
1.807167	4790.597168
1.807250	4947.232422
1.807333	4785.296387
1.807415	5106.735840
1.807498	4989.779297
1.807581	4977.733887
1.807664	5029.354980
1.807746	4976.120117
1.807829	4937.876465
1.807912	4929.589844
1.807995	4906.336426
1.808078	5047.730469
1.808160	4889.780762
1.808243	5023.650391
1.808326	4929.335449
1.808409	5051.937012
1.808492	5129.632813
1.808575	5046.561035
1.808658	5056.955566
1.808741	5127.138672
1.808824	5073.998535
1.808907	5099.326172
1.808990	5232.965820
1.809073	5258.259766
1.809156	5081.911621
1.809239	5338.688965
1.809322	5244.504883
1.809405	5086.905273
1.809488	5119.664551
1.809571	5193.453613
1.809654	5248.566895
1.809737	5255.175781
1.809820	5254.324219
1.809903	5175.173828
1.809987	5032.674805
1.810070	5128.769043
1.810153	5291.913086
1.810236	5201.629395
1.810319	5312.551270
1.810403	5229.742676
1.810486	5284.759766
1.810569	5540.837402
1.810652	5431.970703
1.810735	5200.296875
1.810819	5407.879395
1.810902	5377.232910
1.810985	5473.099121
1.811069	5319.689941
1.811152	5296.511230
1.811235	5466.720703
1.811319	5279.922363
1.811402	5282.784668
1.811486	5423.177246
1.811569	5385.134277
1.811652	5354.535156
1.811736	5565.436523
1.811819	5486.527832
1.811903	5489.353027
1.811986	5458.756348
1.812070	5420.744141
1.812153	5479.261719
1.812237	5367.025391
1.812320	5436.665527
1.812404	5621.306641
1.812487	5609.267090
1.812571	5556.429199
1.812654	5336.720215
1.812738	5665.870605
1.812822	5650.123535
1.812905	5649.208496
1.812989	5540.812988
1.813072	5576.972168
1.813156	5594.594238
1.813240	5727.047852
1.813323	5503.890625
1.813407	5762.225586
1.813491	5446.568848
1.813575	5519.728027
1.813658	5637.279785
1.813742	5732.588867
1.813826	5850.068359
1.813910	5708.535156
1.813993	5637.329102
1.814077	5636.416504
1.814161	5801.906738
1.814245	5712.233887
1.814329	5685.432617
1.814413	5869.313965
1.814497	5739.023438
1.814580	5808.296387
1.814664	5851.687500
1.814748	5835.965332
1.814832	5931.040039
1.814916	5856.230957
1.815000	5733.452148
1.815084	5869.100586
1.815168	5864.459961
1.815252	5881.960938
1.815336	5799.840820
1.815420	5998.101074
1.815504	5945.494629
1.815588	6025.661133
1.815672	5969.379883
1.815756	6042.143066
1.815840	5856.871094
1.815925	6080.726074
1.816009	5928.669434
1.816093	5964.551270
1.816177	6107.242188
1.816261	6039.961914
1.816345	6013.208496
1.816429	6004.872070
1.816514	6088.565918
1.816598	6098.622070
1.816682	6101.315430
1.816766	6048.817383
1.816851	6062.553711
1.816935	6146.169922
1.817019	6262.856934
1.817104	5967.687988
1.817188	6275.536133
1.817272	6359.063477
1.817356	6163.250977
1.817441	6158.579102
1.817525	6120.843262
1.817610	6244.748047
1.817694	6181.300293
1.817778	6180.300293
1.817863	6157.270996
1.817947	6490.336426
1.818032	6232.357910
1.818116	6403.831055
1.818201	6373.441406
1.818285	6434.776855
1.818370	6397.055664
1.818454	6579.393555
1.818539	6215.311035
1.818623	6379.287109
1.818708	6433.240723
1.818792	6402.879395
1.818877	6427.495117
1.818961	6364.169434
1.819046	6341.160645
1.819131	6391.413086
1.819215	6229.246582
1.819300	6491.868164
1.819385	6439.565430
1.819469	6292.110840
1.819554	6492.378906
1.819639	6363.258789
1.819723	6406.132813
1.819808	6566.047363
1.819893	6561.328125
1.819978	6560.267090
1.820063	6405.646484
1.820147	6634.913574
1.820232	6429.160156
1.820317	6669.312012
1.820402	6434.388672
1.820487	6590.437500
1.820571	6746.436035
1.820656	6632.131348
1.820741	6393.713867
1.820826	6546.017090
1.820911	6694.620117
1.820996	6547.550293
1.821081	6568.386230
1.821166	6687.725586
1.821251	6814.321777
1.821336	6707.447266
1.821421	6826.705566
1.821506	6639.648438
1.821591	6857.309082
1.821676	6546.377441
1.821761	6825.937012
1.821846	6686.369141
1.821931	6867.449219
1.822016	6793.486328
1.822101	6763.252441
1.822186	6707.537598
1.822272	6680.967285
1.822357	6825.498047
1.822442	6649.690430
1.822527	6863.321777
1.822612	6873.128418
1.822697	6788.345215
1.822783	6976.389160
1.822868	6866.159668
1.822953	7025.040527
1.823038	6711.247070
1.823124	6870.101074
1.823209	6919.872559
1.823294	6867.880859
1.823380	7059.331543
1.823465	6836.600586
1.823550	6973.513184
1.823636	7008.701172
1.823721	7094.708984
1.823806	6991.915039
1.823892	7045.230469
1.823977	7203.772949
1.824063	7311.464355
1.824148	7009.164551
1.824233	6906.466797
1.824319	7064.928223
1.824404	7045.655762
1.824490	7117.029297
1.824575	7315.254395
1.824661	7111.105469
1.824746	7262.157227
1.824832	6992.863770
1.824918	7270.679199
1.825003	7226.039551
1.825089	7181.414551
1.825174	7133.182617
1.825260	7197.195801
1.825346	7163.455566
1.825431	7263.634766
1.825517	7244.368652
1.825603	7036.973145
1.825688	7137.123535
1.825774	7302.344238
1.825860	7178.212891
1.825945	7307.216797
1.826031	7526.555176
1.826117	7250.639160
1.826203	7390.410156
1.826288	7226.617188
1.826374	7514.468262
1.826460	7253.180176
1.826546	7201.447266
1.826632	7276.114258
1.826717	7368.809570
1.826803	7349.570313
1.826889	7153.485352
1.826975	7513.194336
1.827061	7306.321289
1.827147	7341.216309
1.827233	7415.775879
1.827319	7447.034668
1.827405	7517.946777
1.827491	7376.132324
1.827577	7483.078125
1.827663	7442.225586
1.827749	7617.590820
1.827835	7425.411133
1.827921	7492.654785
1.828007	7617.502930
1.828093	7720.704102
1.828179	7377.410645
1.828265	7358.219727
1.828351	7648.577637
1.828438	7712.120117
1.828524	7638.911621
1.828610	7529.750488
1.828696	7683.206055
1.828782	7667.580078
1.828868	7698.704590
1.828955	7715.437988
1.829041	7908.305664
1.829127	7881.870117
1.829213	7718.889160
1.829300	7710.457031
1.829386	7673.288574
1.829472	7733.110352
1.829558	7731.861816
1.829645	7773.701172
1.829731	7671.925293
1.829818	7559.413574
1.829904	7744.815430
1.829990	7847.625977
1.830077	7846.359375
1.830163	7999.339844
1.830250	7790.027832
1.830336	7778.012695
1.830422	8128.127441
1.830509	7750.408203
1.830595	7888.942871
1.830682	7930.673828
1.830768	7918.644531
1.830855	7989.016602
1.830941	7869.523438
1.831028	7904.066895
1.831115	7781.044434
1.831201	7973.120117
1.831288	7896.661133
1.831374	7956.230469
1.831461	8015.780762
1.831547	7853.481445
1.831634	8149.131836
1.831721	7872.407715
1.831807	7928.355957
1.831894	8155.914063
1.831981	7854.296875
1.832068	8031.750977
1.832154	7955.404297
1.832241	8182.810547
1.832328	7995.709473
1.832415	8094.438477
1.832501	8043.130859
1.832588	8016.836426
1.832675	8001.261230
1.832762	7964.271973
1.832849	8112.895020
1.832936	7847.504883
1.833022	8338.635742
1.833109	8101.833984
1.833196	8104.093750
1.833283	7960.131348
1.833370	8269.071289
1.833457	8228.519531
1.833544	8155.899414
1.833631	8136.763184
1.833718	8345.696289
1.833805	8148.389648
1.833892	8122.138672
1.833979	8163.569336
1.834066	8336.750977
1.834153	8242.830078
1.834240	8323.380859
1.834327	8378.990234
1.834414	8402.550781
1.834501	8315.795898
1.834589	8129.451172
1.834676	8458.957031
1.834763	8439.809570
1.834850	8157.522461
1.834937	8412.199219
1.835024	8485.494141
1.835111	8249.541992
1.835199	8440.112305
1.835286	8296.625000
1.835373	8391.206055
1.835461	8379.197266
1.835548	8154.104980
1.835635	8280.621094
1.835722	8364.492188
1.835810	8405.740234
1.835897	8333.401367
1.835984	8509.486328
1.836072	8444.250000
1.836159	8705.397461
1.836246	8544.384766
1.836334	8479.173828
1.836421	8545.174805
1.836509	8462.258789
1.836596	8517.607422
1.836684	8484.337891
1.836771	8461.708984
1.836859	8633.944336
1.836946	8597.128906
1.837034	8624.076172
1.837121	8767.873047
1.837209	8451.347656
1.837296	8446.445313
1.837384	8590.200195
1.837471	8663.130859
1.837559	8647.581055
1.837647	8759.393555
1.837734	8676.626953
1.837822	8615.105469
1.837910	8748.084961
1.837997	8605.256836
1.838085	8741.729492
1.838173	8814.540039
1.838260	8788.382813
1.838348	8790.499023
1.838436	8792.614258
1.838524	8875.964844
1.838611	8821.562500
1.838699	8873.103516
1.838787	8518.641602
1.838875	8789.058594
1.838963	8558.245117
1.839051	8892.083008
1.839138	8721.303711
1.839226	8857.468750
1.839314	8704.384766
1.839402	8886.350586
1.839490	8609.908203
1.839578	8865.859375
1.839666	8751.642578
1.839754	8838.333008
1.839842	8755.868164
1.839930	8772.071289
1.840018	8957.341797
1.840106	8945.332031
1.840194	8943.890625
1.840282	8854.432617
1.840370	8775.563477
1.840458	8879.734375
1.840546	8938.125000
1.840634	9038.717773
1.840722	8741.764648
1.840810	8589.114258
1.840898	8830.379883
1.840987	9022.342773
1.841075	8880.267578
1.841163	8773.386719
1.841251	8944.178711
1.841339	9160.595703
1.841428	9190.738281
1.841516	8996.058594
1.841604	9131.582031
1.841692	8863.230469
1.841781	9132.150391
1.841869	9042.916992
1.841957	8974.771484
1.842046	9029.474609
1.842134	9136.791016
1.842222	9117.777344
1.842311	8979.510742
1.842399	9202.515625
1.842487	9372.850586
1.842576	9115.407227
1.842664	9289.206055
1.842753	9035.364258
1.842841	9198.607422
1.842930	9263.694336
1.843018	9262.201172
1.843107	9127.612305
1.843195	9199.683594
1.843284	9100.161133
1.843372	9116.199219
1.843461	9230.239258
1.843549	9183.255859
1.843638	9206.270508
1.843726	9243.271484
1.843815	9259.272461
1.843904	9334.724609
1.843992	9333.220703
1.844081	9230.323242
1.844170	9179.894531
1.844258	9384.632813
1.844347	9257.313477
1.844436	9311.727539
1.844525	9097.123047
1.844613	9127.093750
1.844702	9307.227539
1.844791	9316.204102
1.844880	9059.839844
1.844968	9323.673828
1.845057	9416.406250
1.845146	9212.493164
1.845235	9284.278320
1.845324	9317.666992
1.845412	9284.775391
1.845501	9265.842773
1.845590	9400.333984
1.845679	9430.195313
1.845768	9372.906250
1.845857	9448.068359
1.845946	9199.144531
1.846035	9274.310547
1.846124	9384.285156
1.846213	9337.496094
1.846302	9315.098633
1.846391	9243.963867
1.846480	9301.654297
1.846569	9481.147461
1.846658	9361.298828
1.846747	9492.010742
1.846836	9393.072266
1.846925	9349.819336
1.847015	9285.712891
1.847104	9350.284180
1.847193	9404.405273
1.847282	9229.084961
1.847371	9356.193359
1.847460	9465.886719
1.847550	9342.756836
1.847639	9507.998047
1.847728	9419.633789
1.847817	9640.373047
1.847907	9558.959961
1.847996	9647.682617
1.848085	9552.410156
1.848175	9620.281250
1.848264	9466.053711
1.848353	9426.366211
1.848442	9546.257813
1.848532	9607.149414
1.848621	9508.505859
1.848711	9493.105469
1.848800	9519.309570
1.848889	9628.690430
1.848979	9744.965820
1.849068	9719.142578
1.849158	9468.141602
1.849247	9705.621094
1.849337	9603.623047
1.849426	9695.569336
1.849516	9538.211914
1.849605	9796.294922
1.849695	9531.678711
1.849785	9516.301758
1.849874	9646.246094
1.849964	9523.615234
1.850053	9757.280273
1.850143	9603.546875
1.850233	9726.476563
1.850322	9621.196289
1.850412	9702.605469
1.850502	9628.466797
1.850591	9543.985352
1.850681	9514.808594
1.850771	9706.720703
1.850861	9677.527344
1.850950	9537.839844
1.851040	9708.937500
1.851130	9797.129883
1.851220	9654.038086
1.851310	9738.758789
1.851399	9685.433594
1.851489	9552.778320
1.851579	9737.504883
1.851669	9777.322266
1.851759	9627.474609
1.851849	9684.535156
1.851939	9724.340820
1.852029	9629.717773
1.852119	9865.942383
1.852208	9678.299805
1.852298	9714.634766
1.852389	9747.514648
1.852479	9739.057617
1.852569	9623.862305
1.852659	9780.676758
1.852749	9682.722656
1.852839	9674.280273
1.852929	9920.477539
1.853019	9733.094727
1.853109	10054.879883
1.853199	9547.674805
1.853289	9993.182617
1.853379	9637.433594
1.853470	9838.707031
1.853560	9806.188477
1.853650	9825.229492
1.853740	9778.979492
1.853830	9901.083008
1.853921	9823.919922
1.854011	9945.976563
1.854101	10013.051758
1.854191	9819.176758
1.854282	9862.221680
1.854372	9757.668945
1.854462	9783.550781
1.854553	9795.700195
1.854643	9776.970703
1.854733	9850.856445
1.854824	9640.077148
1.854914	9919.691406
1.855004	9657.542969
1.855095	9731.399414
1.855185	9791.522461
1.855276	9700.853516
1.855366	9788.371094
1.855457	9790.220703
1.855547	9925.645508
1.855638	9900.076172
1.855728	9860.820313
1.855819	9941.393555
1.855909	9871.336914
1.856000	9965.571289
1.856091	9820.255859
1.856181	9887.098633
1.856272	9830.777344
1.856362	10010.457031
1.856453	10251.629883
1.856544	9925.180664
1.856634	10067.155273
1.856725	10287.695313
1.856816	9828.122070
1.856907	9706.955078
1.856997	10029.930664
1.857088	9932.678711
1.857179	9999.381836
1.857270	9946.554688
1.857360	9842.534180
1.857451	10093.543945
1.857542	9958.817383
1.857633	9906.029297
1.857724	9904.435547
1.857815	9814.148438
1.857905	10047.907227
1.857996	10114.493164
1.858087	10013.987305
1.858178	9804.423828
1.858269	9973.270508
1.858360	10043.232422
1.858451	9953.024414
1.858542	9808.334961
1.858633	9636.440430
1.858724	9948.219727
1.858815	9929.592773
1.858906	9951.827148
1.858997	9827.677734
1.859088	9880.553711
1.859179	10089.951172
1.859270	9741.275391
1.859362	9879.186523
1.859453	10044.263672
1.859544	10131.069336
1.859635	9837.014648
1.859726	9954.422852
1.859817	10211.159180
1.859909	9930.827148
1.860000	9725.343750
1.860091	9965.004883
1.860182	10075.501953
1.860273	10053.501953
1.860365	9807.378906
1.860456	10155.523438
1.860547	10194.626953
1.860639	10026.667969
1.860730	9906.274414
1.860821	10053.979492
1.860913	10004.865234
1.861004	10057.528320
1.861096	9923.640625
1.861187	9979.690430
1.861278	9761.096680
1.861370	10030.717773
1.861461	10201.960938
1.861553	9908.881836
1.861644	10012.324219
1.861736	9993.774414
1.861827	10019.263672
1.861919	9899.120117
1.862010	9897.527344
1.862102	10068.596680
1.862193	9978.966797
1.862285	9885.981445
1.862376	9908.078125
1.862468	10014.751953
1.862560	10121.390625
1.862651	9822.122070
1.862743	9969.337891
1.862835	9643.140625
1.862926	9874.853516
1.863018	10065.929688
1.863110	9817.603516
1.863201	10157.303711
1.863293	10003.638672
1.863385	10002.029297
1.863477	9949.758789
1.863569	9786.070313
1.863660	9845.269531
1.863752	9890.946289
1.863844	9946.733398
1.863936	9837.143555
1.864028	9906.417969
1.864120	9837.352539
1.864212	9936.960938
1.864303	9965.714844
1.864395	10243.983398
1.864487	9949.022461
1.864579	9849.666992
1.864671	10019.968750
1.864763	10136.299805
1.864855	10053.807617
1.864947	10102.720703
1.865039	9946.160156
1.865131	9924.354492
1.865223	10094.478516
1.865315	9937.994141
1.865408	9909.467773
1.865500	9897.777344
1.865592	9879.360352
1.865684	9995.523438
1.865776	10010.735352
1.865868	9911.589844
1.865960	9674.603516
1.866053	10005.904297
1.866145	9910.168945
1.866237	9585.907227
1.866329	9789.360352
1.866421	9982.667969
1.866514	10071.768555
1.866606	9942.507813
1.866698	9793.138672
1.866791	9774.773438
1.866883	9789.988281
1.866975	9902.543945
1.867068	9756.632813
1.867160	9942.983398
1.867252	9793.755859
1.867345	9855.918945
1.867437	9824.146484
1.867530	9775.616211
1.867622	9931.635742
1.867715	9692.012695
1.867807	9804.418945
1.867900	9987.168945
1.867992	9751.002930
1.868085	9648.924805
1.868177	9757.915039
1.868270	9809.933594
1.868362	9875.330078
1.868455	9860.348633
1.868547	9748.291016
1.868640	9689.822266
1.868733	9832.166016
1.868825	9994.539063
1.868918	9514.528320
1.869011	9670.209961
1.869103	9792.397461
1.869196	9750.696289
1.869289	9839.397461
1.869381	9958.155273
1.869474	9766.044922
1.869567	9824.625000
1.869660	9642.622070
1.869752	9868.234375
1.869845	9669.581055
1.869938	9654.667969
1.870031	9345.924805
1.870124	9521.361328
1.870216	9439.718750
1.870309	9688.506836
1.870402	9580.168945
1.870495	9541.927734
1.870588	9907.331055
1.870681	9732.303711
1.870774	9570.671875
1.870867	9645.819336
1.870960	9554.258789
1.871053	9696.046875
1.871146	9621.169922
1.871239	9576.305664
1.871332	9394.864258
1.871425	9766.422852
1.871518	9618.312500
1.871611	9686.693359
1.871704	9708.441406
1.871797	9623.659180
1.871891	9668.707031
1.871984	9494.108398
1.872077	9416.055664
1.872170	9524.322266
1.872263	9509.485352
1.872356	9517.933594
1.872450	9809.009766
1.872543	9641.205078
1.872636	9815.827148
1.872729	9574.958008
1.872823	9493.666992
1.872916	9498.785156
1.873009	9586.948242
1.873103	9382.804688
1.873196	9560.619141
1.873289	9608.885742
1.873383	9554.224609
1.873476	9509.538086
1.873569	9375.261719
1.873663	9400.298828
1.873756	9471.775391
1.873850	9579.714844
1.873943	9382.498047
1.874037	9235.084961
1.874130	9492.207031
1.874224	9397.862305
1.874317	9330.062500
1.874411	9388.211914
1.874504	9476.162109
1.874598	9395.130859
1.874691	9264.441406
1.874785	9279.509766
1.874879	9321.063477
1.874972	9259.972656
1.875066	9433.920898
1.875160	9382.759766
1.875253	9308.451172
1.875347	9320.188477
1.875441	9222.756836
1.875534	9241.118164
1.875628	9342.147461
1.875722	9132.340820
1.875816	9196.990234
1.875909	9221.954102
1.876003	9240.299805
1.876097	9159.510742
1.876191	9194.378906
1.876285	9239.145508
1.876378	9267.384766
1.876472	9315.426758
1.876566	9020.083008
1.876660	9319.033203
1.876754	9221.817383
1.876848	9256.635742
1.876942	9261.746094
1.877036	9210.771484
1.877130	9328.035156
1.877224	9323.236328
1.877318	9146.975586
1.877412	9343.316406
1.877506	9272.590820
1.877600	9132.675781
1.877694	8923.605469
1.877788	9179.160156
1.877882	9144.742188
1.877976	9133.390625
1.878070	9204.371094
1.878165	9255.573242
1.878259	8964.379883
1.878353	9107.767578
1.878447	9070.101563
1.878541	9012.704102
1.878635	9136.274414
1.878730	9118.357422
1.878824	8919.555664
1.878918	9036.503906
1.879012	8844.354492
1.879107	9010.585938
1.879201	9025.571289
1.879295	9093.131836
1.879390	8970.096680
1.879484	9057.355469
1.879578	8996.774414
1.879673	9077.431641
1.879767	8869.102539
1.879862	8939.905273
1.879956	8882.664063
1.880050	8976.415039
1.880145	8938.874023
1.880239	8855.412109
1.880334	8949.122070
1.880428	8931.283203
1.880523	8811.788086
1.880617	8987.430664
1.880712	8864.686523
1.880807	8892.760742
1.880901	8842.171875
1.880996	8952.160156
1.881090	8855.708984
1.881185	8746.186523
1.881280	8689.101563
1.881374	8635.309570
1.881469	8807.450195
1.881564	8783.119141
1.881658	8552.589844
1.881753	8881.744141
1.881848	8827.962891
1.881943	8820.000977
1.882037	8723.723633
1.882132	8594.772461
1.882227	8662.059570
1.882322	8670.474609
1.882416	8662.542969
1.882511	8811.494141
1.882606	8522.507813
1.882701	8540.741211
1.882796	8663.505859
1.882891	8701.307617
1.882986	8520.292969
1.883081	8538.514648
1.883176	8612.228516
1.883271	8679.391602
1.883365	8436.486328
1.883461	8519.970703
1.883555	8482.712891
1.883650	8474.824219
1.883746	8303.862305
1.883841	8436.227539
1.883936	8659.844727
1.884031	8508.494141
1.884126	8699.432617
1.884221	8271.116211
1.884316	8409.896484
1.884411	8493.249023
1.884506	8335.531250
1.884602	8373.272461
1.884697	8424.026367
1.884792	8513.833008
1.884887	8372.488281
1.884982	8374.397461
1.885078	8304.711914
1.885173	8482.329102
1.885268	8389.876953
1.885363	8294.201172
1.885459	8299.372070
1.885554	8340.307617
1.885649	8195.919922
1.885745	8210.854492
1.885840	8203.034180
1.885936	8068.485840
1.886031	8252.379883
1.886126	8085.381836
1.886222	8168.527832
1.886317	8160.719238
1.886413	8234.084961
1.886508	8080.182617
1.886604	8088.620605
1.886699	8402.115234
1.886795	8118.467285
1.886890	8305.329102
1.886986	8073.687988
1.887082	7968.606445
1.887177	7947.868652
1.887273	8270.808594
1.887368	8130.087402
1.887464	7986.169922
1.887560	8120.991699
1.887655	7951.200684
1.887751	8011.473633
1.887847	7945.404297
1.887942	8057.475586
1.888038	7942.849121
1.888134	8190.858887
1.888230	7788.157227
1.888325	8042.584473
1.888421	7805.067871
1.888517	7826.460938
1.888613	8006.355957
1.888709	7995.365723
1.888804	7987.612305
1.888900	7769.694336
1.888996	7849.265137
1.889092	7902.952148
1.889188	7526.795410
1.889284	7855.172852
1.889380	7769.910645
1.889476	7794.502930
1.889572	7799.708984
1.889668	7640.225098
1.889764	7803.657715
1.889860	7666.821289
1.889956	7710.774902
1.890052	7741.805664
1.890148	7592.138184
1.890244	7790.933105
1.890340	7509.058105
1.890436	7475.600098
1.890532	7503.418457
1.890628	7518.331543
1.890725	7501.005371
1.890821	7635.163086
1.890917	7704.828613
1.891013	7603.709961
1.891109	7773.221191
1.891206	7443.441895
1.891302	7464.787598
1.891398	7605.259766
1.891495	7375.464844
1.891591	7300.246582
1.891687	7447.113281
1.891783	7442.698242
1.891880	7512.280762
1.891976	7588.273926
1.892072	7355.486328
1.892169	7550.460938
1.892265	7430.285156
1.892362	7364.796875
1.892458	7370.040527
1.892555	7352.787109
1.892651	7316.260254
1.892748	7315.083984
1.892844	7127.606934
1.892941	7370.539551
1.893037	7269.811523
1.893134	7210.853027
1.893230	7261.053223
1.893327	7298.399414
1.893423	7387.077148
1.893520	7312.094727
1.893616	7400.741211
1.893713	7165.408203
1.893810	7189.911133
1.893906	7294.566406
1.894003	7085.010254
1.894100	7202.469727
1.894197	7307.071777
1.894293	7126.453125
1.894390	7176.568359
1.894487	7104.941406
1.894584	7030.134277
1.894680	7134.679199
1.894777	6935.021973
1.894874	6981.925293
1.894971	7144.040039
1.895068	6995.681152
1.895165	6920.962402
1.895262	7035.020508
1.895358	7043.484863
1.895455	6863.254883
1.895552	6817.384277
1.895649	6931.384277
1.895746	6821.584473
1.895843	6951.527832
1.895940	6851.346680
1.896037	6917.341309
1.896134	6839.559082
1.896231	6749.025879
1.896328	6827.778320
1.896425	6769.206055
1.896523	6809.619629
1.896620	6725.532715
1.896717	6874.450684
1.896814	6991.410645
1.896911	6722.288086
1.897008	6797.765625
1.897105	6873.218262
1.897203	6766.878906
1.897300	6871.007813
1.897397	6860.338867
1.897494	6820.986816
1.897591	6695.602051
1.897689	6786.929199
1.897786	6753.979492
1.897883	6851.638184
1.897981	6723.143555
1.898078	6639.270020
1.898175	6867.435059
1.898273	6608.484863
1.898370	6591.508301
1.898468	6533.167480
1.898565	6640.295898
1.898662	6769.658203
1.898760	6523.653809
1.898857	6694.335938
1.898955	6534.274414
1.899052	6603.165527
1.899150	6490.849609
1.899247	6642.357422
1.899345	6606.334961
1.899442	6579.854980
1.899540	6550.207031
1.899638	6653.965332
1.899735	6411.548828
1.899833	6435.918457
1.899930	6438.057617
1.900028	6481.458984
1.900126	6489.937012
1.900223	6466.681641
1.900321	6475.159180
1.900419	6434.512207
1.900517	6393.865723
1.900614	6353.218750
1.900712	6312.572266
1.900810	6271.925293
1.900908	6231.278320
1.901006	6190.631836
1.901103	6149.984863
1.901201	6282.049805
1.901299	6350.722656
1.901397	6248.359375
1.901495	6231.521973
1.901593	6287.505859
1.901691	6324.479492
1.901789	6086.094727
1.901887	5999.677246
1.901984	6043.006348
1.902083	6219.183105
1.902181	6126.459473
1.902279	6172.909180
1.902377	6263.609863
1.902475	6259.440918
1.902573	6106.714355
1.902671	6149.976074
1.902769	6060.512207
1.902867	6170.112793
1.902965	6254.407715
1.903063	6098.645508
1.903161	6154.504395
1.903260	5979.864258
1.903358	6089.389160
1.903456	6129.440430
1.903554	6033.782227
1.903653	6042.277344
1.903751	5930.889648
1.903849	5989.865723
1.903947	6042.515137
1.904045	5915.414551
1.904144	6005.891113
1.904242	5904.054688
1.904341	5852.678223
1.904439	5971.481445
1.904537	6049.287109
1.904636	5900.256348
1.904734	5848.912598
1.904832	5807.032715
1.904931	5784.057617
1.905029	5864.979004
1.905128	5952.168945
1.905226	5878.827148
1.905325	5685.937988
1.905423	5659.854004
1.905522	5734.437988
1.905620	5919.076172
1.905719	5650.833496
1.905818	5756.823242
1.905916	5825.055664
1.906015	5846.120117
1.906114	5659.767578
1.906212	5815.960449
1.906311	5661.088379
1.906410	5547.099609
1.906508	5652.985352
1.906607	5793.377930
1.906706	5707.678223
1.906804	5741.289063
1.906903	5730.949707
1.907002	5598.230469
1.907101	5719.692871
1.907200	5587.018066
1.907298	5548.480957
1.907397	5694.980469
1.907496	5640.760742
1.907595	5577.153320
1.907694	5654.617676
1.907793	5475.070801
1.907892	5583.861816
1.907991	5595.495117
1.908090	5400.381348
1.908188	5684.521484
1.908288	5461.272949
1.908386	5551.191895
1.908486	5747.517090
1.908584	5374.127930
1.908684	5454.628906
1.908783	5366.140625
1.908882	5340.249512
1.908981	5461.379883
1.909080	5397.952148
1.909179	5472.129883
1.909278	5364.950684
1.909377	5351.583984
1.909477	5328.844727
1.909576	5365.486328
1.909675	5327.129883
1.909774	5301.281250
1.909873	5181.738281
1.909973	5399.507813
1.910072	5264.375488
1.910171	5319.722656
1.910271	5265.802734
1.910370	5392.912109
1.910469	5317.154785
1.910568	5300.699707
1.910668	5259.294434
1.910767	5189.832520
1.910867	5198.352539
1.910966	5365.881348
1.911065	5124.979492
1.911165	5145.972656
1.911264	5223.054199
1.911364	5231.561035
1.911463	5221.373047
1.911563	5018.065430
1.911662	5229.035645
1.911762	5228.193848
1.911862	5093.477539
1.911961	5120.673340
1.912061	5082.500977
1.912160	5150.144043
1.912260	4953.298828
1.912359	5058.270996
1.912459	5010.801270
1.912559	5137.499512
1.912659	5049.610352
1.912758	4955.531738
1.912858	5107.043945
1.912958	5065.819336
1.913057	5096.077637
1.913157	5067.295898
1.913257	5041.629395
1.913357	4975.594727
1.913457	4993.425781
1.913556	5060.929199
1.913656	4982.505371
1.913756	4981.703125
1.913856	4894.007324
1.913956	4716.355957
1.914056	4870.715332
1.914156	4770.671387
1.914256	4921.870605
1.914356	4874.564941
1.914456	4886.182129
1.914556	4962.892090
1.914656	4819.521973
1.914756	4793.955566
1.914856	5003.873047
1.914956	4931.816406
1.915056	4943.412109
1.915156	4837.322266
1.915256	4867.507324
1.915356	4798.614258
1.915456	4766.888184
1.915557	4933.244629
1.915657	4904.600586
1.915757	4916.187012
1.915857	4967.982910
1.915957	4843.467285
1.916057	4697.345215
1.916158	4668.762207
1.916258	4816.397461
1.916358	4701.258789
1.916458	4722.134766
1.916559	4749.183594
1.916659	4640.289551
1.916759	4704.409668
1.916860	4888.957031
1.916960	4783.180664
1.917061	4624.952637
1.917161	4547.034668
1.917262	4746.920410
1.917362	4780.101074
1.917462	4594.205566
1.917563	4587.295898
1.917663	4719.188477
1.917764	4632.078125
1.917864	4693.001465
1.917965	4834.061035
1.918066	4605.181641
1.918166	4687.652832
1.918267	4776.260254
1.918367	4664.576660
1.918468	4617.618652
1.918569	4570.675293
1.918669	4634.608398
1.918770	4581.519531
1.918871	4725.470215
1.918971	4672.383789
1.919072	4613.159180
1.919173	4618.570313
1.919273	4503.996094
1.919374	4441.750488
1.919475	4453.337402
1.919576	4535.645508
1.919677	4587.182129
1.919777	4485.000488
1.919878	4527.307617
1.919979	4529.651855
1.920080	4525.849609
1.920181	4420.671387
1.920282	4499.819824
1.920383	4539.019043
1.920484	4443.100586
1.920585	4602.028320
1.920686	4343.443359
1.920787	4364.227539
1.920888	4366.593262
1.920989	4476.341309
1.921090	4408.133301
1.921191	4462.630859
1.921292	4336.181641
1.921393	4430.532715
1.921494	4402.228516
1.921595	4315.695801
1.921696	4382.422852
1.921798	4587.014160
1.921899	4298.292969
1.922000	4239.400879
1.922101	4205.028809
1.922202	4406.454102
1.922304	4375.127930
1.922405	4184.629883
1.922506	4327.808105
1.922607	4379.134277
1.922709	4286.638184
1.922810	4319.599121
1.922911	4199.613281
1.923013	4159.180176
1.923114	4192.145020
1.923216	4411.590820
1.923317	4325.291504
1.923418	4266.525879
1.923520	4418.626465
1.923621	4225.433105
1.923723	4185.040527
1.923824	4211.854980
1.923926	4333.328125
1.924027	4183.018066
1.924129	4289.192871
1.924230	4172.513672
1.924332	4345.795410
1.924433	4287.120117
1.924535	4252.870117
1.924637	4169.825684
1.924738	4217.951660
1.924840	4153.235352
1.924942	4244.032715
1.925043	4100.075195
1.925145	4108.558105
1.925247	4190.176270
1.925348	4092.000000
1.925450	4021.272949
1.925552	4054.130371
1.925654	4086.977051
1.925756	4202.026367
1.925857	4131.327148
1.925959	4188.497070
1.926061	4029.561279
1.926163	4065.427979
1.926265	4049.560547
1.926367	4109.748047
1.926468	4112.127441
1.926570	4084.095703
1.926672	3973.978271
1.926774	4058.459229
1.926876	4039.568115
1.926978	4041.956299
1.927080	4156.770996
1.927182	4028.501465
1.927284	4146.318848
1.927386	3999.869385
1.927488	3974.931885
1.927591	4047.158447
1.927693	3949.365967
1.927795	4067.100342
1.927897	3935.954590
1.927999	3992.969727
1.928101	3986.258789
1.928203	4018.981689
1.928306	4039.562988
1.928408	4023.750977
1.928510	4004.912109
1.928612	4022.454102
1.928715	3882.391357
1.928817	3957.522217
1.928919	3887.199707
1.929022	3871.426758
1.929124	4100.991699
1.929226	3939.830322
1.929329	4002.779541
1.929431	3999.107178
1.929533	3807.771484
1.929636	3816.236816
1.929738	3888.242676
1.929841	3987.453613
1.929943	3862.790283
1.930046	3898.460693
1.930148	3852.473389
1.930251	3912.321289
1.930353	3848.208740
1.930456	3802.251709
1.930558	3801.638916
1.930661	3891.670654
1.930764	3791.350586
1.930866	3869.272705
1.930969	3853.548828
1.931072	3861.986328
1.931174	3867.401855
1.931277	3806.407227
1.931380	3823.902100
1.931482	3768.969238
1.931585	3834.738037
1.931688	3743.621338
1.931791	3800.324219
1.931893	3814.790039
1.931996	3931.766113
1.932099	3864.809570
1.932202	3861.172363
1.932305	3842.467773
1.932407	3712.280029
1.932510	3913.534424
1.932613	3798.438477
1.932716	3683.379150
1.932819	3658.695313
1.932922	3682.191650
1.933025	3765.886475
1.933128	3798.387451
1.933231	3767.681641
1.933334	3839.286621
1.933437	3727.358154
1.933540	3726.757324
1.933643	3726.156494
1.933746	3770.659424
1.933849	3718.942139
1.933953	3757.419922
1.934056	3735.775879
1.934159	3711.133789
1.934262	3629.414307
1.934365	3730.965088
1.934468	3709.338867
1.934572	3843.877197
1.934675	3717.150391
1.934778	3572.452148
1.934881	3748.969238
1.934985	3808.386475
1.935088	3600.730469
1.935191	3780.157471
1.935295	3749.551514
1.935398	3625.981445
1.935501	3703.362061
1.935605	3630.808350
1.935708	3693.174805
1.935812	3716.556885
1.935915	3665.012939
1.936018	3694.384521
1.936122	3654.843750
1.936225	3561.400391
1.936329	3683.613037
1.936432	3632.115479
1.936536	3613.566650
1.936639	3624.957520
1.936743	3657.294434
1.936847	3602.841553
1.936950	3641.155273
1.937054	3664.499512
1.937157	3556.234375
1.937261	3717.145996
1.937365	3674.686768
1.937468	3638.219971
1.937572	3512.094482
1.937676	3684.863037
1.937779	3582.675049
1.937883	3591.059814
1.937987	3476.971191
1.938091	3518.222900
1.938195	3634.114258
1.938298	3708.169189
1.938402	3531.446533
1.938506	3554.754395
1.938610	3494.496826
1.938714	3664.005127
1.938818	3609.715820
1.938922	3451.047607
1.939026	3474.349121
1.939130	3670.586914
1.939234	3452.359131
1.939337	3597.862793
1.939442	3498.930908
1.939546	3465.587891
1.939650	3572.286865
1.939754	3515.111328
1.939858	3663.465576
1.939962	3490.153564
1.940066	3718.855469
1.940170	3548.567139
1.940274	3610.501465
1.940378	3508.734131
1.940482	3534.947754
1.940587	3507.601807
1.940691	3405.900146
1.940795	3417.247070
1.940899	3496.983643
1.941004	3481.553711
1.941108	3516.663818
1.941212	3474.485840
1.941316	3470.953613
1.941421	3538.731689
1.941525	3454.979736
1.941629	3406.897949
1.941734	3391.499268
1.941838	3385.013428
1.941943	3503.220459
1.942047	3544.212158
1.942152	3564.415283
1.942256	3477.785645
1.942360	3480.191406
1.942465	3530.059082
1.942569	3565.081055
1.942674	3404.369873
1.942778	3474.980469
1.942883	3527.781006
1.942988	3441.254395
1.943092	3523.678955
1.943197	3511.258057
1.943301	3569.943359
1.943406	3447.919922
1.943511	3465.133301
1.943616	3503.069336
1.943720	3455.132813
1.943825	3454.575195
1.943930	3480.655273
1.944034	3574.790039
1.944139	3405.562256
1.944244	3410.929199
1.944349	3451.788330
1.944453	3519.250244
1.944558	3551.207764
1.944663	3479.681152
1.944768	3443.648438
1.944873	3404.671631
1.944978	3472.086426
1.945083	3350.391846
1.945188	3329.172852
1.945293	3361.124512
1.945397	3357.628906
1.945503	3357.086670
1.945608	3394.922119
1.945712	3456.358398
1.945818	3382.021729
1.945922	3369.672852
1.946028	3392.730469
1.946133	3454.126953
1.946238	3379.838135
1.946343	3426.472900
1.946448	3481.937256
1.946553	3502.010010
1.946658	3389.445557
1.946764	3356.482666
1.946869	3317.637695
1.946974	3449.668213
1.947079	3431.438721
1.947184	3407.324951
1.947290	3318.440186
1.947395	3359.120361
1.947500	3379.182861
1.947606	3231.484131
1.947711	3354.551025
1.947816	3445.214844
1.947922	3338.759521
1.948027	3352.926270
1.948133	3449.427490
1.948238	3316.561035
1.948343	3371.880371
1.948449	3265.522461
1.948554	3291.444092
1.948660	3387.876953
1.948765	3372.640625
1.948871	3375.033447
1.948976	3292.255371
1.949082	3344.579346
1.949187	3305.871826
1.949293	3317.079834
1.949399	3325.349121
1.949504	3430.454834
1.949610	3371.219971
1.949716	3320.804688
1.949821	3428.792969
1.949927	3346.125732
1.950033	3292.806396
1.950138	3371.429932
1.950244	3244.843750
1.950350	3220.873779
1.950456	3396.168945
1.950562	3275.499268
1.950667	3348.202881
1.950773	3406.238770
1.950879	3379.333252
1.950985	3258.743896
1.951091	3305.056152
1.951197	3374.769043
1.951303	3315.694336
1.951409	3203.970703
1.951514	3376.059326
1.951620	3322.863037
1.951726	3234.588623
1.951832	3216.521484
1.951939	3353.412842
1.952044	3455.181885
1.952150	3343.561279
1.952257	3302.110107
1.952363	3161.332520
1.952469	3306.885742
1.952575	3227.489746
1.952681	3332.100342
1.952787	3319.882324
1.952893	3190.892822
1.953000	3359.674561
1.953106	3280.333740
1.953212	3297.311523
1.953318	3250.098633
1.953424	3415.844238
1.953531	3319.045898
1.953637	3268.936035
1.953743	3201.348633
1.953850	3326.182617
1.953956	3313.986572
1.954062	3272.652100
1.954169	3178.883789
1.954275	3315.293457
1.954382	3294.368164
1.954488	3221.027588
1.954594	3299.127197
1.954701	3225.809570
1.954807	3228.198975
1.954914	3317.900879
1.955020	3288.265137
1.955127	3305.190674
1.955234	3313.383545
1.955340	3251.768311
1.955447	3289.047852
1.955553	3207.103027
1.955660	3337.406250
1.955767	3176.999512
1.955873	3371.202148
1.955980	3300.919434
1.956087	3216.133057
1.956193	3195.279541
1.956300	3217.997803
1.956407	3220.381348
1.956514	3350.513428
1.956620	3201.922852
1.956727	3279.771484
1.956834	3224.103760
1.956941	3316.430908
1.957048	3327.499023
1.957154	3239.943848
1.957261	3262.620850
1.957368	3154.806885
1.957475	3220.977783
1.957582	3153.786865
1.957689	3257.613281
1.957796	3335.326172
1.957903	3328.992432
1.958010	3374.803467
1.958117	3171.512695
1.958224	3194.166992
1.958331	3283.408691
1.958438	3294.457764
1.958545	3192.617920
1.958652	3122.645264
1.958759	3214.734131
1.958867	3280.755127
1.958974	3138.486572
1.959081	3187.145508
1.959188	3310.972412
1.959295	3272.851318
1.959403	3202.944092
1.959510	3234.219238
1.959617	3175.899902
1.959724	3264.956055
1.959832	3221.094971
1.959939	3304.337891
1.960046	3266.260254
1.960154	3326.368896
1.960261	3169.932617
1.960368	3284.881592
1.960476	3327.641357
1.960583	3260.734131
1.960690	3283.288086
1.960798	3340.450439
1.960905	3328.373291
1.961013	3267.276367
1.961120	3180.249756
1.961228	3263.336670
1.961336	3193.632813
1.961443	3239.226074
1.961551	3258.872070
1.961658	3339.011230
1.961766	3168.523193
1.961874	3199.690674
1.961981	3248.125244
1.962089	3270.632568
1.962197	3247.074463
1.962304	3309.868408
1.962412	3228.758057
1.962520	3251.253418
1.962627	3190.315674
1.962735	3290.469482
1.962843	3361.832520
1.962951	3108.257568
1.963058	3317.621582
1.963166	3325.708008
1.963274	3192.968018
1.963382	3163.716309
1.963490	3263.760498
1.963598	3263.232422
1.963706	3271.320801
1.963814	3308.122803
1.963922	3264.519775
1.964030	3097.490723
1.964138	3151.524170
1.964246	3377.726563
1.964354	3190.674561
1.964462	3247.535400
1.964570	3338.798096
1.964678	3194.861816
1.964786	3182.875000
1.964894	3116.419189
1.965002	3201.910645
1.965110	3212.856689
1.965219	3189.411865
1.965327	3134.458252
1.965435	3222.755615
1.965543	3265.197266
1.965651	3181.620117
1.965760	3321.406006
1.965868	3197.767334
1.965976	3274.533203
1.966084	3179.560791
1.966193	3110.372070
1.966301	3215.724121
1.966410	3289.576660
1.966518	3143.182373
1.966626	3159.831055
1.966735	3193.628906
1.966843	3158.808105
1.966952	3244.042236
1.967060	3240.659424
1.967169	3077.270996
1.967277	3268.178467
1.967386	3247.655029
1.967494	3278.543701
1.967603	3215.193848
1.967711	3177.559082
1.967820	3314.060059
1.967928	3093.763672
1.968037	3176.016113
1.968146	3132.705322
1.968254	3209.219238
1.968363	3240.073730
1.968472	3273.769775
1.968580	3176.296875
1.968689	3178.633545
1.968798	3158.166504
1.968907	3305.848389
1.969015	3262.571777
1.969124	3207.913574
1.969233	3215.939697
1.969342	3232.507080
1.969451	3135.166504
1.969560	3146.047119
1.969669	3102.838135
1.969777	3182.028564
1.969886	3144.519043
1.969995	3212.295898
1.970104	3336.946777
1.970213	3236.854492
1.970322	3253.393555
1.970431	3232.962646
1.970540	3192.637695
1.970649	3152.325684
1.970758	3205.813721
1.970868	3230.868652
1.970977	3298.532227
1.971086	3258.228760
1.971195	3266.221436
1.971304	3265.692383
1.971413	3097.646484
1.971522	3156.759766
1.971632	3176.116943
1.971741	3164.250732
1.971850	3251.698730
1.971959	3106.486084
1.972068	3222.280029
1.972178	3230.266113
1.972287	3241.085205
1.972396	3311.438477
1.972506	3234.365723
1.972615	3358.547363
1.972724	3309.829346
1.972834	3221.460938
1.972943	3266.264404
1.973053	3245.908447
1.973162	3231.222900
1.973272	3179.733154
1.973381	3210.358887
1.973491	3175.872314
1.973600	3257.430176
1.973710	3293.687500
1.973819	3092.282715
1.973929	3145.527100
1.974039	3150.673828
1.974148	3254.791748
1.974258	3259.918945
1.974367	3103.912354
1.974477	3182.549072
1.974587	3122.688232
1.974697	3181.517822
1.974806	3195.127441
1.974916	3318.891357
1.975026	3129.136719
1.975135	3179.455811
1.975245	3122.476074
1.975355	3141.729248
1.975465	3158.153809
1.975575	3329.774414
1.975685	3145.844727
1.975794	3244.067139
1.975904	3082.774658
1.976014	3265.575684
1.976124	3250.948730
1.976234	3275.793457
1.976344	3196.340576
1.976454	3207.095215
1.976564	3198.122070
1.976674	3172.248047
1.976784	3309.757813
1.976894	3235.995850
1.977004	3218.575928
1.977114	3119.513428
1.977224	3251.312256
1.977335	3126.945801
1.977445	3224.931396
1.977555	3154.068115
1.977665	3327.972900
1.977775	3279.617188
1.977885	3135.660645
1.977996	3180.140869
1.978106	3143.077881
1.978216	3221.272949
1.978327	3198.267090
1.978437	3304.527588
1.978547	3281.515381
1.978658	3129.293945
1.978768	3328.197510
1.978878	3195.674805
1.978989	3237.271973
1.979099	3374.301758
1.979210	3210.960938
1.979320	3303.049072
1.979430	3257.619385
1.979541	3178.539307
1.979651	3231.318115
1.979762	3185.921875
1.979872	3199.425537
1.979983	3246.567627
1.980094	3299.300781
1.980204	3225.895752
1.980315	3225.372559
1.980425	3244.461914
1.980536	3190.710449
1.980647	3235.006836
1.980757	3170.072266
1.980868	3376.755371
1.980979	3289.422852
1.981090	3109.749756
1.981200	3207.196289
1.981311	3192.685303
1.981422	3194.964844
1.981533	3191.649414
1.981644	3233.083252
1.981754	3190.613770
1.981865	3232.034424
1.981976	3203.555664
1.982087	3264.525391
1.982198	3297.529785
1.982309	3185.232178
1.982420	3089.732666
1.982531	3290.338623
1.982642	3155.754883
1.982753	3211.087891
1.982864	3213.358643
1.982975	3134.679443
1.983086	3198.361328
1.983197	3220.165771
1.983308	3205.693359
1.983419	3230.278809
1.983530	3190.707520
1.983642	3162.303467
1.983753	3192.460205
1.983864	3356.417480
1.983975	3288.978271
1.984086	3255.002686
1.984198	3176.456299
1.984309	3209.371582
1.984420	3247.847168
1.984532	3414.420410
1.984643	3235.654541
1.984754	3349.277832
1.984865	3295.844727
1.984977	3259.127930
1.985088	3266.947266
1.985200	3177.383301
1.985311	3201.904297
1.985422	3307.077393
1.985534	3173.055176
1.985645	3261.515869
1.985757	3199.825439
1.985868	3243.779297
1.985980	3237.694580
1.986091	3306.635986
1.986203	3200.526123
1.986315	3166.673096
1.986426	3257.811035
1.986538	3204.521240
1.986650	3270.635254
1.986761	3272.880127
1.986873	3169.654053
1.986985	3202.440430
1.987096	3265.736816
1.987208	3151.465332
1.987320	3386.720215
1.987432	3233.640137
1.987543	3266.388916
1.987655	3213.183350
1.987767	3229.292969
1.987879	3142.852783
1.987991	3261.496582
1.988103	3130.749756
1.988214	3282.598145
1.988326	3318.070801
1.988438	3209.531982
1.988550	3264.386230
1.988662	3244.477783
1.988774	3202.432617
1.988886	3265.563232
1.988998	3173.722656
1.989110	3325.365967
1.989222	3211.416748
1.989334	3329.817139
1.989447	3138.478760
1.989559	3220.910889
1.989671	3236.973145
1.989783	3230.919678
1.989895	3197.234131
1.990007	3221.581299
1.990119	3151.995605
1.990232	3253.678955
1.990344	3211.726563
1.990456	3109.042480
1.990568	3235.529053
1.990681	3367.494873
1.990793	3245.516846
1.990905	3272.583008
1.991018	3211.355469
1.991130	3144.630859
1.991242	3215.827881
1.991355	3259.426270
1.991467	3198.240234
1.991580	3161.884033
1.991692	3109.002197
1.991805	3323.446289
1.991917	3226.470215
1.992030	3165.338867
1.992142	3211.649414
1.992255	3222.143311
1.992367	3290.457764
1.992480	3210.083740
1.992592	3237.088135
1.992705	3090.696533
1.992818	3233.284180
1.992930	3117.204834
1.993043	3130.452393
1.993156	3231.707764
1.993269	3206.433105
1.993381	3274.649170
1.993494	3166.904053
1.993607	3281.830322
1.993720	3187.859619
1.993832	3280.763428
1.993945	3129.130615
1.994058	3285.190430
1.994171	3215.997070
1.994284	3256.663086
1.994397	3234.169922
1.994510	3228.153809
1.994623	3249.585693
1.994736	3243.569092
1.994848	3196.398926
1.994962	3160.217041
1.995075	3129.532471
1.995188	3104.342285
1.995301	3271.093750
1.995414	3188.318115
1.995527	3286.476074
1.995640	3154.394287
1.995753	3175.802246
1.995866	3197.203369
1.995979	3048.764893
1.996092	3157.820313
1.996206	3190.166992
1.996319	3178.696533
1.996432	3268.515381
1.996545	3139.344482
1.996659	3237.350098
1.996772	3242.295654
1.996885	3187.054932
1.996999	3230.300049
1.997112	3246.183350
1.997225	3174.562500
1.997339	3272.466309
1.997452	3146.195313
1.997565	3222.207520
1.997679	3104.183594
1.997792	3100.946533
1.997906	3089.515381
1.998019	3116.324951
1.998133	3137.664063
1.998246	3123.501953
1.998360	3229.459473
1.998473	3160.697754
1.998587	3116.519531
1.998700	3167.854980
1.998814	3129.145996
1.998928	3172.279541
1.999041	3106.310059
1.999155	3116.711670
1.999269	3072.583008
1.999382	3189.296387
1.999496	3164.248535
1.999610	3041.108154
1.999724	3223.158936
1.999838	3200.841553
1.999951	3233.004639
2.000065	3308.729004
2.000179	3136.654785
2.000293	3147.033691
2.000407	3157.409180
2.000521	3203.159912
2.000635	3145.497314
2.000748	3134.103027
2.000862	3185.275391
2.000976	3201.074951
2.001091	3116.257324
2.001204	3156.531982
2.001318	3136.989746
2.001432	3207.145020
2.001547	3176.730469
2.001661	3162.628174
2.001775	3172.979736
2.001889	3205.056885
2.002003	3144.789551
2.002117	3176.860840
2.002231	3108.472900
2.002346	3167.683350
2.002460	3077.607422
2.002574	3123.235840
2.002688	3163.423096
2.002802	3181.896240
2.002917	3197.651123
2.003031	3313.734863
2.003145	3109.848633
2.003260	3228.619629
2.003374	3295.854004
2.003489	3151.688965
2.003603	3148.466309
2.003717	3172.335205
2.003832	3198.905029
2.003946	3228.174316
2.004061	3111.214844
2.004175	3170.269043
2.004290	3096.666992
2.004404	3033.914551
2.004519	3101.070313
2.004633	3092.448486
2.004748	3173.098145
2.004862	3169.876709
2.004977	3050.374023
2.005092	3201.289551
2.005206	3135.887695
2.005321	3170.514648
2.005436	3086.221436
2.005550	3210.012207
2.005665	3212.190674
2.005780	3025.288086
2.005895	3151.728516
2.006010	3162.016113
2.006124	3164.200684
2.006239	3187.979736
2.006354	3119.986572
2.006469	3154.558838
2.006584	3143.252441
2.006699	3086.090088
2.006814	3123.347900
2.006928	3117.445313
2.007043	3133.115234
2.007159	3081.383057
2.007273	3191.393799
2.007388	3231.298584
2.007504	3061.014893
2.007618	3211.386475
2.007734	3194.701172
2.007849	2978.721436
2.007964	3182.888672
2.008079	3179.677490
2.008194	3149.548096
2.008309	3170.566650
2.008425	3145.830322
2.008540	3263.704346
2.008655	3142.114746
2.008770	3157.740967
2.008885	3192.187012
2.009001	3119.067627
2.009116	3088.986572
2.009231	3139.554443
2.009346	3139.042725
2.009462	3103.598633
2.009577	3197.125732
2.009693	3207.349365
2.009808	3021.507324
2.009923	3117.687012
2.010039	3023.207031
2.010154	3087.141357
2.010270	3046.377441
2.010386	3008.310303
2.010501	3096.364014
2.010617	3176.340820
2.010732	3119.494873
2.010848	3204.805176
2.010963	3153.335693
2.011079	3053.625488
2.011194	3154.987793
2.011310	3135.712646
2.011426	3111.084229
2.011541	3078.426270
2.011657	3080.603027
2.011773	3101.527344
2.011889	3066.208496
2.012004	3087.128174
2.012120	3008.990479
2.012236	3174.448975
2.012352	3123.083984
2.012468	3055.681396
2.012583	3092.636963
2.012699	3132.255371
2.012815	3115.697754
2.012931	3088.449707
2.013047	3103.987061
2.013163	3084.769043
2.013279	3164.445801
2.013395	3078.417969
2.013511	3163.413330
2.013627	3056.042480
2.013743	2980.757813
2.013859	3127.148682
2.013975	3105.278076
2.014091	3072.735840
2.014208	3144.302490
2.014324	3077.070557
2.014440	3079.236816
2.014556	3089.405762
2.014672	3128.913330
2.014788	3117.734619
2.014905	3066.560791
2.015021	3127.381592
2.015137	3046.899902
2.015254	3003.758301
2.015370	3077.883545
2.015486	3064.059082
2.015603	3151.469727
2.015719	3190.908447
2.015835	3043.917236
2.015952	3054.071045
2.016068	3114.803711
2.016185	2994.514648
2.016301	3076.527832
2.016418	3187.784180
2.016534	3102.128174
2.016651	3011.179932
2.016767	3061.221191
2.016884	3103.268311
2.017000	2993.752930
2.017117	3022.505615
2.017234	2976.828125
2.017350	3021.518555
2.017467	3079.479492
2.017583	3100.229492
2.017700	3073.161621
2.017817	3120.462646
2.017934	3085.434570
2.018050	3063.691895
2.018167	3110.970947
2.018284	3062.691406
2.018401	3054.230469
2.018517	3109.447021
2.018634	2971.000000
2.018751	3060.690918
2.018868	3097.316406
2.018985	2913.865479
2.019102	3061.842529
2.019219	2976.525879
2.019336	3097.943359
2.019453	2946.407471
2.019570	2964.470703
2.019687	3019.610840
2.019804	3066.787842
2.019921	3021.272217
2.020038	2996.951416
2.020155	3020.285156
2.020272	3133.596436
2.020390	3080.160645
2.020507	3098.177734
2.020624	3010.375977
2.020741	3123.614258
2.020858	3001.458740
2.020976	2998.324463
2.021093	3103.578125
2.021210	3097.784668
2.021327	3049.709473
2.021445	2935.592285
2.021562	3075.131348
2.021679	2961.047119
2.021797	2973.768311
2.021914	2962.719971
2.022031	3038.799805
2.022149	3019.825195
2.022266	2985.020996
2.022384	3047.865479
2.022501	2894.339355
2.022619	2996.747559
2.022736	3009.445557
2.022854	3056.421631
2.022971	3008.461670
2.023089	2989.516113
2.023206	3012.749756
2.023324	3001.715820
2.023442	2940.620850
2.023559	3008.637939
2.023677	3050.291748
2.023795	3026.090088
2.023912	3009.795898
2.024030	3043.530273
2.024148	2956.164063
2.024266	2987.264160
2.024384	2986.775635
2.024501	2941.558838
2.024619	3098.917480
2.024737	2832.757568
2.024855	3032.158936
2.024973	2937.005859
2.025091	2915.494141
2.025208	3020.157715
2.025326	2875.119385
2.025445	3071.722900
2.025563	2929.350586
2.025681	2970.900146
2.025798	2891.623535
2.025917	2899.028320
2.026035	2951.064209
2.026153	3071.334717
2.026271	2863.485596
2.026389	2988.979492
2.026507	2957.005127
2.026625	2838.470459
2.026743	2890.464600
2.026861	2887.369141
2.026980	2873.786621
2.027098	2930.992432
2.027216	2817.800781
2.027334	2835.685303
2.027453	2921.693115
2.027571	3039.111572
2.027689	2878.825195
2.027808	2917.640137
2.027926	2945.967529
2.028044	2921.921631
2.028163	2890.030273
2.028281	2989.016602
2.028400	2899.552246
2.028518	2896.461182
2.028637	2898.603271
2.028755	2874.588135
2.028874	2902.885010
2.028992	2873.647217
2.029111	2996.051514
2.029229	2864.864746
2.029348	2940.187500
2.029467	2926.640869
2.029585	2889.584717
2.029704	2933.519531
2.029823	2797.226318
2.029941	2867.275146
2.030060	2830.252686
2.030179	2871.557373
2.030298	2792.784912
2.030416	2930.639404
2.030535	2977.125488
2.030654	2814.892822
2.030773	2796.173340
2.030892	2868.737793
2.031011	2930.848633
2.031129	2935.582764
2.031248	2794.342285
2.031367	2864.253174
2.031486	2783.004150
2.031605	2852.893799
2.031724	2899.315674
2.031843	2927.490723
2.031962	2916.594971
2.032081	2827.592285
2.032200	2860.971436
2.032319	2870.914307
2.032439	2839.215332
2.032557	2833.546387
2.032677	2853.894531
2.032796	2874.236084
2.032915	2868.563965
2.033034	2821.289307
2.033154	2833.826172
2.033273	2861.955566
2.033392	2856.288818
2.033511	2881.806641
2.033631	2751.427490
2.033750	2779.551758
2.033869	2831.041992
2.033989	2840.965576
2.034108	2837.903809
2.034227	2731.002441
2.034347	2738.341553
2.034466	2867.650879
2.034586	2633.655029
2.034705	2853.739746
2.034825	2793.612793
2.034944	2772.407227
2.035064	2764.173828
2.035183	2802.610107
2.035303	2750.307129
2.035423	2791.324463
2.035542	2764.953613
2.035662	2754.136963
2.035781	2764.047363
2.035901	2781.724854
2.036021	2755.372559
2.036140	2837.775635
2.036260	2738.936523
2.036380	2702.250488
2.036500	2859.671875
2.036619	2703.952393
2.036739	2726.792725
2.036859	2853.092529
2.036979	2790.554932
2.037099	2759.067627
2.037219	2851.689453
2.037339	2729.728271
2.037459	2752.541748
2.037578	2772.763428
2.037699	2772.308838
2.037818	2730.521729
2.037939	2833.388184
2.038059	2729.626465
2.038178	2744.670898
2.038299	2764.873291
2.038419	2717.959229
2.038539	2758.805176
2.038659	2714.487549
2.038779	2716.622070
2.038899	2754.868652
2.039020	2713.152100
2.039140	2723.021484
2.039260	2730.309570
2.039380	2786.572754
2.039500	2683.021729
2.039621	2765.043213
2.039741	2754.283691
2.039861	2833.690430
2.039982	2719.896484
2.040102	2642.193359
2.040222	2778.225098
2.040343	2713.409424
2.040463	2700.094482
2.040584	2601.856689
2.040704	2735.232178
2.040825	2655.029541
2.040945	2803.786377
2.041066	2708.167480
2.041186	2638.294434
2.041307	2668.713623
2.041427	2562.881348
2.041548	2765.504395
2.041668	2641.702637
2.041789	2746.611572
2.041910	2715.333740
2.042031	2689.203369
2.042151	2596.311768
2.042272	2711.429443
2.042393	2626.266113
2.042513	2692.572021
2.042634	2728.059326
2.042755	2722.479492
2.042876	2670.721924
2.042997	2665.153320
2.043118	2718.574463
2.043238	2646.328613
2.043359	2604.872559
2.043480	2665.967285
2.043601	2655.277588
2.043722	2675.342285
2.043843	2662.092285
2.043964	2623.229004
2.044085	2715.005859
2.044206	2660.781250
2.044327	2616.815918
2.044448	2721.348877
2.044569	2677.388184
2.044690	2671.830078
2.044812	2656.038574
2.044933	2706.770020
2.045054	2611.680908
2.045175	2537.083252
2.045296	2626.165771
2.045418	2653.858154
2.045539	2650.866211
2.045660	2658.098389
2.045781	2611.663818
2.045903	2654.670166
2.046024	2687.444092
2.046145	2656.352295
2.046267	2622.717041
2.046388	2721.866699
2.046510	2606.537842
2.046631	2537.191895
2.046753	2659.275391
2.046874	2643.528564
2.046995	2523.185547
2.047117	2591.643311
2.047239	2547.860596
2.047360	2598.441650
2.047482	2620.960938
2.047603	2595.038818
2.047725	2589.514893
2.047847	2581.444336
2.047968	2606.499023
2.048090	2567.858643
2.048212	2412.065918
2.048333	2544.094971
2.048455	2663.349365
2.048577	2568.716797
2.048699	2619.202393
2.048820	2641.676514
2.048942	2572.539551
2.049064	2617.911133
2.049186	2558.975342
2.049308	2655.199951
2.049430	2527.619629
2.049551	2567.883545
2.049674	2511.536377
2.049795	2523.831543
2.049917	2533.581543
2.050040	2523.001953
2.050161	2520.046631
2.050283	2504.392578
2.050405	2514.139160
2.050528	2569.586182
2.050650	2561.547607
2.050772	2558.588135
2.050894	2499.796631
2.051016	2570.434082
2.051138	2481.215332
2.051260	2539.149414
2.051383	2599.600586
2.051505	2561.136230
2.051627	2428.876221
2.051749	2438.600098
2.051872	2448.323975
2.051994	2458.048096
2.052116	2467.771973
2.052239	2477.495850
2.052361	2487.219727
2.052484	2496.943604
2.052606	2506.667480
2.052728	2516.391602
2.052851	2526.115479
2.052973	2535.839355
2.053096	2510.118652
2.053218	2479.346191
2.053341	2478.938477
2.053463	2458.297607
2.053586	2430.077393
2.053709	2510.582520
2.053831	2426.750000
2.053954	2413.713379
2.054076	2547.249023
2.054199	2440.711914
2.054322	2447.888916
2.054445	2548.517578
2.054567	2495.065186
2.054690	2434.055664
2.054813	2587.652100
2.054936	2415.585693
2.055058	2382.380127
2.055181	2392.081055
2.055304	2371.504395
2.055427	2368.591553
2.055550	2400.988281
2.055673	2360.246826
2.055796	2438.016113
2.055919	2437.614746
2.056042	2462.417236
2.056165	2386.412842
2.056288	2459.086914
2.056411	2493.950195
2.056534	2402.865479
2.056657	2412.542969
2.056780	2404.592041
2.056903	2469.650635
2.057026	2403.800293
2.057149	2423.537598
2.057273	2420.622314
2.057396	2359.843994
2.057519	2319.208740
2.057642	2419.426758
2.057765	2356.163574
2.057889	2373.374756
2.058012	2415.717773
2.058136	2342.433105
2.058259	2357.124756
2.058382	2359.249023
2.058506	2313.642578
2.058629	2413.729004
2.058753	2415.842529
2.058876	2435.531494
2.058999	2397.473633
2.059123	2314.247559
2.059246	2286.260742
2.059370	2310.976074
2.059494	2353.244629
2.059617	2357.873779
2.059741	2415.168457
2.059864	2306.945801
2.059988	2386.793945
2.060112	2343.786377
2.060235	2355.931885
2.060359	2307.931641
2.060483	2282.496338
2.060606	2292.140625
2.060730	2474.602783
2.060854	2351.487061
2.060978	2311.038086
2.061101	2250.575195
2.061225	2327.797363
2.061349	2274.859131
2.061473	2337.038818
2.061597	2364.173096
2.061721	2378.791504
2.061845	2335.883301
2.061969	2300.490723
2.062093	2357.614258
2.062217	2354.726074
2.062341	2261.863770
2.062465	2348.951904
2.062589	2278.607422
2.062713	2368.161865
2.062837	2337.799561
2.062961	2297.458252
2.063085	2399.449463
2.063210	2321.664795
2.063334	2238.914063
2.063458	2325.890381
2.063582	2323.011719
2.063706	2365.039551
2.063831	2282.335938
2.063955	2229.586670
2.064079	2289.063721
2.064204	2198.933838
2.064328	2280.830566
2.064452	2305.377441
2.064577	2280.078125
2.064701	2277.210693
2.064825	2289.290283
2.064950	2268.987549
2.065074	2303.476563
2.065199	2283.177979
2.065324	2257.906982
2.065448	2279.935547
2.065573	2316.888428
2.065697	2207.025879
2.065822	2281.295166
2.065946	2298.330322
2.066071	2290.490234
2.066195	2267.733154
2.066320	2220.122314
2.066445	2286.870605
2.066570	2129.918213
2.066694	2223.993164
2.066819	2325.490723
2.066944	2305.234131
2.067069	2188.120850
2.067194	2262.257813
2.067318	2177.467285
2.067443	2132.423584
2.067568	2204.050781
2.067693	2203.687012
2.067818	2230.616699
2.067943	2272.422363
2.068068	2301.812012
2.068193	2303.911865
2.068318	2219.225830
2.068443	2226.296875
2.068568	2196.184082
2.068693	2272.650635
2.068818	2138.466309
2.068943	2261.989990
2.069068	2259.139404
2.069193	2154.744141
2.069319	2288.109131
2.069444	2161.460449
2.069569	2210.613281
2.069694	2304.301270
2.069819	2224.731201
2.069945	2130.341797
2.070070	2256.156494
2.070195	2181.580566
2.070321	2309.818115
2.070446	2195.695557
2.070571	2187.916260
2.070697	2229.575684
2.070822	2162.479492
2.070948	2154.709229
2.071073	2137.059082
2.071199	2144.116699
2.071324	2173.399658
2.071450	2150.816406
2.071575	2106.019775
2.071701	2214.288086
2.071826	2075.706299
2.071952	2188.878906
2.072078	2070.085693
2.072203	2165.953369
2.072329	2153.262939
2.072454	2150.441162
2.072580	2137.757324
2.072706	2016.604858
2.072832	2085.288330
2.072958	2213.096191
2.073083	2050.102051
2.073209	2074.399902
2.073335	2162.733887
2.073461	2118.045410
2.073587	2078.296143
2.073713	1994.243652
2.073838	2121.918457
2.073964	2168.330811
2.074090	2067.079102
2.074217	2091.341309
2.074342	2066.395752
2.074469	2078.352051
2.074594	2001.773804
2.074721	2151.427979
2.074847	2119.113525
2.074973	2074.519775
2.075099	2088.922119
2.075225	2103.319580
2.075351	1999.788574
2.075477	2144.381836
2.075603	2085.084717
2.075730	2074.917969
2.075856	2101.581055
2.075982	2022.682617
2.076109	2172.060791
2.076235	2112.807861
2.076361	2033.946655
2.076488	2099.843506
2.076614	2060.253418
2.076741	2032.937500
2.076867	2057.119873
2.076993	2088.648682
2.077120	2110.362549
2.077246	2053.648438
2.077373	2045.957886
2.077499	2048.069336
2.077626	2126.112549
2.077753	2008.207031
2.077879	2000.528931
2.078006	2051.610596
2.078132	2056.166748
2.078259	2087.642822
2.078386	1950.264893
2.078512	1991.534424
2.078639	2045.021118
2.078766	1995.766846
2.078892	2076.134277
2.079019	1975.546387
2.079146	2073.002686
2.079273	1952.894897
2.079400	2008.778442
2.079527	2006.002563
2.079654	1961.697144
2.079780	2100.598145
2.079907	2048.965088
2.080034	2085.252197
2.080161	1960.398438
2.080288	1991.806152
2.080415	2101.300293
2.080542	2071.670898
2.080669	2046.930664
2.080796	1868.521118
2.080923	2002.352295
2.081050	2014.213257
2.081177	1999.251099
2.081305	1964.792114
2.081432	1923.032593
2.081559	1986.073486
2.081686	1934.578125
2.081814	1970.799072
2.081941	1953.422852
2.082068	2026.157837
2.082195	2011.213013
2.082323	1942.714478
2.082450	2027.585327
2.082577	2039.417725
2.082705	2039.079956
2.082832	1985.219116
2.082960	1997.052490
2.083087	1904.303345
2.083215	2025.570679
2.083342	2030.097656
2.083470	2012.745361
2.083597	1929.776489
2.083724	1953.757202
2.083852	1938.855591
2.083980	1882.661865
2.084107	1923.640137
2.084235	1920.892822
2.084363	1973.991333
2.084490	1905.690430
2.084618	1983.045898
2.084746	1875.936890
2.084874	1967.830078
2.085001	2001.468262
2.085129	1875.004272
2.085257	1891.669922
2.085385	1939.852783
2.085513	1910.438232
2.085641	1871.337280
2.085768	1909.804810
2.085896	1972.491577
2.086024	1921.285645
2.086152	1966.992798
2.086280	2049.014893
2.086408	1944.546143
2.086536	1939.381348
2.086664	1893.064575
2.086792	1883.069092
2.086920	1880.336792
2.087049	1850.989868
2.087177	1836.167725
2.087305	1942.290039
2.087433	1893.600098
2.087561	1917.465942
2.087689	1832.532349
2.087818	1924.081543
2.087946	1952.763794
2.088074	1846.118896
2.088202	1923.124268
2.088331	1910.727295
2.088459	1907.995117
2.088587	1869.042114
2.088716	1895.290161
2.088844	1839.454224
2.088973	1923.624390
2.089101	1969.155640
2.089230	1894.032715
2.089358	1937.141235
2.089487	1849.988525
2.089615	1847.270020
2.089744	1907.242920
2.089872	1837.013916
2.090001	1868.043945
2.090129	1877.373779
2.090258	1884.291016
2.090387	1912.888428
2.090515	1852.351440
2.090644	1907.436768
2.090773	1871.000366
2.090901	1846.614014
2.091030	1819.828491
2.091159	1925.424805
2.091288	1773.503174
2.091417	1898.319824
2.091546	1934.088379
2.091674	1782.240723
2.091803	1880.541016
2.091932	1839.354248
2.092061	1882.320557
2.092190	1857.972168
2.092319	1934.565552
2.092448	1826.118896
2.092577	1871.461060
2.092706	1806.296509
2.092835	1866.036377
2.092964	1848.918091
2.093093	1810.198364
2.093223	1776.292114
2.093352	1771.197144
2.093481	1826.093750
2.093610	1777.806396
2.093739	1727.136230
2.093868	1822.785400
2.093998	1872.840698
2.094127	1750.251709
2.094256	1824.274414
2.094386	1788.019165
2.094515	1756.568848
2.094645	1806.593262
2.094774	1784.732544
2.094903	1853.897217
2.095033	1793.718750
2.095162	1740.743408
2.095292	1783.546631
2.095421	1749.739502
2.095551	1737.482544
2.095680	1820.942871
2.095810	1753.652100
2.095939	1750.968628
2.096069	1714.803101
2.096198	1800.602661
2.096328	1687.933838
2.096458	1771.318848
2.096588	1766.244263
2.096717	1737.274902
2.096847	1701.147339
2.096977	1777.307861
2.097106	1777.012329
2.097236	1728.955688
2.097366	1754.932617
2.097496	1709.282715
2.097626	1759.122803
2.097756	1718.260254
2.097886	1636.848022
2.098016	1794.030640
2.098145	1719.788574
2.098275	1686.114136
2.098405	1747.830444
2.098536	1637.871582
2.098665	1706.726318
2.098796	1756.491821
2.098926	1679.946777
2.099056	1739.229980
2.099186	1650.802612
2.099316	1693.398804
2.099446	1819.327026
2.099576	1719.025635
2.099707	1756.828125
