#Wave		#Intensity
1.699584	444.748474
1.699649	401.708313
1.699714	454.234344
1.699779	444.594574
1.699844	458.856934
1.699908	525.682617
1.699973	453.920074
1.700038	420.400604
1.700103	487.198242
1.700168	405.928314
1.700233	487.029755
1.700298	472.623596
1.700363	443.902985
1.700428	434.281586
1.700493	419.891998
1.700558	434.131439
1.700623	510.373993
1.700688	457.826477
1.700753	410.065338
1.700818	481.505127
1.700883	428.989838
1.700948	447.978638
1.701013	476.490662
1.701078	452.587921
1.701143	442.983215
1.701208	519.105713
1.701273	476.161499
1.701338	428.471313
1.701403	447.437195
1.701468	437.841644
1.701534	437.766022
1.701599	494.780487
1.701664	451.884918
1.701729	485.097931
1.701794	508.789398
1.701859	427.879822
1.701925	489.600159
1.701990	499.020813
1.702055	522.693481
1.702120	460.841064
1.702186	394.259888
1.702251	474.929932
1.702316	498.590393
1.702381	517.495056
1.702447	517.405762
1.702512	408.157990
1.702577	521.972473
1.702643	536.115601
1.702708	483.843903
1.702773	497.988708
1.702839	521.612488
1.702904	531.004822
1.702969	492.990875
1.703035	545.040161
1.703100	544.946167
1.703166	416.930420
1.703231	407.384491
1.703297	478.357483
1.703362	535.099792
1.703427	497.130951
1.703493	501.779053
1.703558	539.556152
1.703624	444.820557
1.703689	572.489502
1.703755	458.858826
1.703820	539.184509
1.703886	529.633850
1.703952	505.902344
1.704017	444.361023
1.704083	467.916687
1.704148	576.525269
1.704214	510.278778
1.704280	505.466949
1.704345	514.826294
1.704411	547.794189
1.704476	542.978333
1.704542	505.118988
1.704608	457.832794
1.704674	462.473114
1.704739	500.139954
1.704805	509.488861
1.704871	495.251160
1.704936	537.608765
1.705002	561.091553
1.705068	546.852295
1.705134	509.050781
1.705199	570.227295
1.705265	518.299316
1.705331	570.031189
1.705397	522.831238
1.705463	513.322571
1.705528	555.611450
1.705594	484.899506
1.705660	513.057861
1.705726	536.500366
1.705792	531.702820
1.705858	531.611450
1.705924	569.149841
1.705989	545.537476
1.706056	568.954224
1.706121	451.324127
1.706187	507.652405
1.706253	516.964539
1.706319	460.489288
1.706385	526.183105
1.706451	544.881714
1.706517	558.877502
1.706583	539.998901
1.706649	497.652649
1.706715	506.955261
1.706781	516.254639
1.706847	572.475037
1.706913	572.376770
1.706980	478.462341
1.707046	590.940247
1.707112	600.217224
1.707178	571.983826
1.707244	604.698792
1.707310	567.100708
1.707376	524.829590
1.707443	618.443054
1.707509	604.283813
1.707575	533.926636
1.707641	604.076477
1.707707	533.743469
1.707773	543.014221
1.707840	575.683533
1.707906	580.264343
1.707972	542.734863
1.708038	580.065369
1.708105	640.768738
1.708171	495.692291
1.708237	481.580658
1.708303	556.293945
1.708370	598.263977
1.708436	579.468872
1.708503	574.697266
1.708569	560.584106
1.708635	569.829529
1.708702	607.091309
1.708768	490.258972
1.708834	574.204956
1.708901	564.771484
1.708967	574.008240
1.709034	587.907715
1.709100	485.174011
1.709167	643.678284
1.709233	559.624390
1.709299	550.203064
1.709366	624.699890
1.709432	582.642639
1.709499	563.901489
1.709566	577.783569
1.709632	591.660889
1.709699	656.770874
1.709765	577.486877
1.709832	619.295227
1.709898	544.700256
1.709965	581.845154
1.710032	563.129700
1.710098	637.484009
1.710165	655.984436
1.710231	586.098511
1.710298	604.601379
1.710365	544.048157
1.710431	562.551819
1.710498	641.478271
1.710565	576.302185
1.710631	669.139648
1.710698	571.459045
1.710765	631.749084
1.710832	622.352234
1.710898	645.463928
1.710965	492.140137
1.711032	598.822876
1.711099	626.567932
1.711165	723.910278
1.711232	612.434753
1.711299	603.052368
1.711366	640.053833
1.711433	616.758057
1.711500	649.108032
1.711566	593.368835
1.711633	611.807007
1.711700	583.897827
1.711767	551.364868
1.711834	648.553711
1.711901	611.389038
1.711968	634.439331
1.712035	541.727905
1.712102	564.782166
1.712169	643.371460
1.712236	601.611511
1.712303	666.286682
1.712370	693.930115
1.712437	647.557495
1.712504	610.450012
1.712571	665.831726
1.712638	679.587219
1.712705	688.715698
1.712772	683.976685
1.712839	660.756592
1.712906	651.404053
1.712973	651.292847
1.713040	609.616943
1.713107	586.425293
1.713175	641.726074
1.713242	687.776062
1.713309	683.043579
1.713376	636.783325
1.713443	678.196960
1.713511	659.630066
1.713578	645.681580
1.713645	594.847961
1.713712	627.019592
1.713779	608.474060
1.713847	603.761475
1.713914	681.995850
1.713981	580.519104
1.714048	677.156860
1.714116	677.041443
1.714183	667.716125
1.714250	709.039734
1.714318	722.728943
1.714385	616.746338
1.714453	685.668274
1.714520	662.546326
1.714587	745.237610
1.714655	699.116150
1.714722	744.983704
1.714789	675.888550
1.714857	602.219849
1.714924	703.236206
1.714992	634.183472
1.715059	698.401917
1.715127	735.034729
1.715194	633.859497
1.715262	730.192017
1.715329	688.743103
1.715397	729.943359
1.715464	720.638977
1.715532	679.212830
1.715599	724.982117
1.715667	734.034180
1.715734	683.452942
1.715802	697.095093
1.715870	646.537354
1.715937	710.611633
1.716005	678.403992
1.716073	737.867981
1.716140	691.919922
1.716208	700.965149
1.716275	783.298340
1.716343	682.407043
1.716411	737.240540
1.716478	645.548035
1.716546	759.877625
1.716614	636.174866
1.716682	755.043213
1.716749	754.914795
1.716817	741.063049
1.716885	640.315979
1.716953	690.509094
1.717021	731.540894
1.717088	726.845154
1.717156	786.139099
1.717224	703.749084
1.717292	731.043579
1.717360	671.532166
1.717427	717.092712
1.717495	790.037964
1.717563	812.733276
1.717631	712.162109
1.717699	821.585876
1.717767	771.246765
1.717835	775.678589
1.717903	688.868042
1.717971	761.731262
1.718039	743.359924
1.718107	843.547424
1.718175	843.404175
1.718243	774.888428
1.718311	811.216003
1.718379	742.728943
1.718447	719.823608
1.718515	737.921692
1.718583	705.916321
1.718651	774.099365
1.718719	714.782166
1.718787	805.700439
1.718855	737.295593
1.718923	755.372192
1.718992	759.793701
1.719060	750.566956
1.719128	691.314087
1.719196	863.995972
1.719264	777.464417
1.719332	704.599670
1.719401	745.385437
1.719469	840.688477
1.719537	754.219543
1.719605	754.091614
1.719674	763.047607
1.719742	831.035889
1.719810	762.788818
1.719878	780.818054
1.719947	807.918884
1.720015	789.629456
1.720083	766.808960
1.720152	762.142395
1.720220	766.548950
1.720288	848.049438
1.720357	775.357605
1.720425	852.295471
1.720493	802.291138
1.720562	779.495422
1.720630	792.956848
1.720699	738.457520
1.720767	774.569580
1.720835	833.313721
1.720904	787.891418
1.720972	846.613464
1.721041	733.305603
1.721109	846.326660
1.721178	787.357727
1.721246	841.515686
1.721315	773.520508
1.721383	782.434998
1.721452	764.214539
1.721520	777.648804
1.721589	818.201172
1.721658	863.259460
1.721726	826.961975
1.721795	903.630554
1.721864	880.890625
1.721932	758.792725
1.722001	839.949707
1.722069	808.201904
1.722138	799.036438
1.722207	830.496216
1.722275	816.817261
1.722344	888.871643
1.722413	843.608521
1.722481	875.039368
1.722550	811.754822
1.722619	784.563599
1.722688	883.611755
1.722756	833.880249
1.722825	883.312866
1.722894	797.550659
1.722963	819.941650
1.723032	927.908875
1.723101	860.197205
1.723169	950.109558
1.723238	819.387207
1.723307	904.774597
1.723376	904.621643
1.723445	845.970703
1.723514	809.835022
1.723583	877.172974
1.723651	904.010132
1.723720	822.914856
1.723789	926.184753
1.723858	908.047119
1.723927	876.432007
1.723996	831.346252
1.724065	840.191772
1.724134	853.526550
1.724203	911.771667
1.724272	938.562012
1.724341	839.624146
1.724410	906.820496
1.724479	902.178833
1.724549	902.026489
1.724618	964.691223
1.724687	960.042114
1.724756	923.996643
1.724825	856.570679
1.724894	838.490417
1.724963	981.809570
1.725032	909.925537
1.725101	864.955566
1.725171	923.060974
1.725240	1016.987732
1.725309	958.584290
1.725378	913.636414
1.725447	909.004333
1.725517	828.263184
1.725586	859.457825
1.725655	868.263916
1.725724	899.441284
1.725794	961.926575
1.725863	934.924316
1.725932	952.656860
1.726002	934.608887
1.726071	1019.401367
1.726140	961.115479
1.726210	1032.466187
1.726279	889.290527
1.726348	938.289001
1.726418	897.925171
1.726487	942.439087
1.726557	879.759216
1.726626	1018.026794
1.726696	1031.247925
1.726765	937.340088
1.726834	910.405457
1.726904	959.334167
1.726973	861.024597
1.727043	981.313354
1.727112	967.768677
1.727182	963.146545
1.727251	998.650330
1.727321	958.364441
1.727390	935.919128
1.727460	962.497498
1.727530	971.245850
1.727599	1037.899780
1.727669	877.389709
1.727738	944.036987
1.727808	957.234680
1.727878	970.427979
1.727947	974.715271
1.728017	1019.051147
1.728087	947.691406
1.728156	983.119873
1.728226	934.028992
1.728296	898.295654
1.728365	929.268188
1.728435	978.012329
1.728505	968.958130
1.728575	1022.123169
1.728644	1030.837646
1.728714	959.583862
1.728784	994.956482
1.728854	1030.317139
1.728923	1030.143799
1.728993	963.377502
1.729063	994.286804
1.729133	1038.499878
1.729203	1007.264038
1.729273	949.419556
1.729343	935.952454
1.729412	926.924866
1.729482	993.283447
1.729552	1041.885498
1.729622	935.322754
1.729692	997.214294
1.729762	1050.222412
1.729832	1089.920898
1.729902	1027.719971
1.729972	956.681885
1.730042	1018.517700
1.730112	991.780884
1.730182	965.053040
1.730252	1000.299622
1.730322	1000.131409
1.730392	999.963257
1.730462	951.132568
1.730532	1061.550903
1.730602	1096.751587
1.730672	1070.037354
1.730743	994.702209
1.730813	1091.778442
1.730883	1069.497925
1.730953	1033.968872
1.731023	985.197876
1.731093	998.283875
1.731164	1011.365479
1.731234	1139.250854
1.731304	1037.515503
1.731374	1054.998047
1.731444	1032.753418
1.731515	1050.230835
1.731585	1102.998413
1.731655	1124.869385
1.731725	1058.522827
1.731796	1080.393921
1.731866	1075.803467
1.731936	1150.563721
1.732007	1088.664795
1.732077	1079.668335
1.732147	1039.832520
1.732218	1048.468628
1.732288	1092.338501
1.732358	1065.731934
1.732429	1083.165527
1.732499	1122.605103
1.732570	1078.400269
1.732640	1131.030029
1.732710	1100.039185
1.732781	1060.259766
1.732851	1121.663330
1.732922	1183.046387
1.732992	1147.670166
1.733063	1173.856445
1.733133	1120.910767
1.733204	1125.117676
1.733274	1116.140381
1.733345	1089.592163
1.733416	1128.944336
1.733486	1098.010742
1.733557	1067.087402
1.733627	1137.157593
1.733698	1145.746460
1.733769	1088.496094
1.733839	1070.760132
1.733910	1175.883545
1.733980	1092.335571
1.734051	1157.944702
1.734122	1131.438110
1.734193	1056.708740
1.734263	1144.210571
1.734334	1122.102661
1.734405	1174.504395
1.734475	1108.581299
1.734546	1213.539795
1.734617	1081.928101
1.734688	1169.337646
1.734758	1134.111206
1.734829	1120.786987
1.734900	1181.881958
1.734971	1203.567017
1.735042	1177.110107
1.735113	1141.911743
1.735183	1176.715698
1.735254	1198.386963
1.735325	1154.456787
1.735396	1128.030151
1.735467	1202.156372
1.735538	1145.135376
1.735609	1061.913330
1.735680	1245.245239
1.735751	1092.137451
1.735822	1196.782227
1.735893	1240.252808
1.735964	1187.648804
1.736035	1126.331299
1.736106	1113.047974
1.736177	1139.046631
1.736248	1186.853760
1.736319	1182.292358
1.736390	1147.198730
1.736461	1125.200439
1.736532	1107.570068
1.736603	1290.495605
1.736674	1259.766235
1.736745	1202.897217
1.736817	1263.702271
1.736888	1215.565308
1.736959	1228.430420
1.737030	1245.646484
1.737101	1275.920898
1.737172	1262.645508
1.737244	1231.961792
1.737315	1179.525757
1.737386	1266.363770
1.737457	1222.641602
1.737528	1209.386230
1.737600	1135.241089
1.737671	1261.167969
1.737742	1213.127686
1.737814	1199.882690
1.737885	1269.228760
1.737956	1286.400391
1.738028	1138.447754
1.738099	1251.214355
1.738170	1320.505493
1.738242	1203.022583
1.738313	1246.244629
1.738384	1120.130249
1.738456	1284.895874
1.738527	1328.082520
1.738599	1258.429932
1.738670	1266.896973
1.738742	1240.657471
1.738813	1227.438477
1.738885	1331.309692
1.738956	1244.371460
1.739028	1335.199951
1.739099	1430.332397
1.739171	1222.079834
1.739242	1256.538818
1.739314	1303.982788
1.739385	1351.410889
1.739457	1329.531494
1.739528	1294.669556
1.739600	1298.782593
1.739672	1207.666016
1.739743	1181.497437
1.739815	1272.169312
1.739887	1371.463745
1.739958	1375.560425
1.740030	1284.507080
1.740101	1336.183228
1.740173	1387.842041
1.740245	1279.541016
1.740317	1365.768555
1.740388	1309.363281
1.740460	1339.388916
1.740532	1373.724487
1.740604	1386.452759
1.740675	1425.087402
1.740747	1316.906372
1.740819	1321.003662
1.740891	1363.946045
1.740963	1372.349609
1.741034	1346.231567
1.741106	1380.520020
1.741178	1358.722656
1.741250	1371.434082
1.741322	1466.068481
1.741394	1435.645264
1.741466	1409.542603
1.741538	1366.209351
1.741610	1417.690674
1.741681	1395.912354
1.741753	1399.987183
1.741825	1356.684326
1.741897	1412.438965
1.741969	1317.482422
1.742041	1407.663208
1.742113	1355.779785
1.742185	1355.553711
1.742257	1484.406494
1.742329	1393.818970
1.742401	1458.104492
1.742474	1483.664307
1.742546	1461.918213
1.742618	1478.870728
1.742690	1341.077759
1.742762	1469.782593
1.742834	1405.084229
1.742906	1422.034790
1.742978	1524.888916
1.743051	1546.108521
1.743123	1391.265869
1.743195	1403.914063
1.743267	1468.069092
1.743340	1356.235474
1.743412	1480.453491
1.743484	1497.368774
1.743556	1458.511597
1.743629	1526.893066
1.743701	1453.737549
1.743773	1406.331787
1.743845	1436.105713
1.743918	1504.445313
1.743990	1427.056641
1.744062	1478.235840
1.744135	1409.445313
1.744207	1332.110962
1.744280	1528.888794
1.744352	1442.996460
1.744424	1442.756226
1.744497	1459.637939
1.744569	1412.317627
1.744642	1480.547241
1.744714	1574.423950
1.744786	1518.552856
1.744859	1582.453735
1.744931	1453.904663
1.745004	1496.417480
1.745076	1517.542236
1.745149	1517.289673
1.745221	1499.943848
1.745294	1533.875366
1.745367	1567.795532
1.745439	1494.924072
1.745512	1558.732910
1.745584	1460.268433
1.745657	1442.949219
1.745729	1570.760254
1.745802	1570.499023
1.745875	1561.703857
1.745947	1574.242798
1.746020	1620.901855
1.746093	1475.628296
1.746166	1667.268066
1.746238	1598.776245
1.746311	1641.137451
1.746384	1623.816528
1.746456	1517.014648
1.746529	1508.241333
1.746602	1614.487061
1.746675	1592.922852
1.746747	1609.691895
1.746820	1600.908813
1.746893	1545.301270
1.746966	1694.015625
1.747039	1523.509644
1.747112	1616.864258
1.747184	1680.408569
1.747257	1633.340942
1.747330	1577.783325
1.747403	1624.293945
1.747476	1590.013062
1.747549	1593.999512
1.747622	1576.734863
1.747695	1640.211670
1.747768	1635.690674
1.747841	1588.692627
1.747914	1601.170166
1.747987	1651.861328
1.748060	1511.478027
1.748133	1506.981934
1.748206	1629.816772
1.748279	1739.879883
1.748352	1633.518311
1.748425	1433.863647
1.748498	1700.839844
1.748571	1704.798096
1.748644	1577.312500
1.748717	1674.556396
1.748791	1614.936768
1.748864	1568.051025
1.748937	1741.518799
1.749010	1516.691528
1.749083	1707.053711
1.749156	1634.772583
1.749229	1651.439087
1.749303	1638.463623
1.749376	1625.492554
1.749449	1709.869873
1.749522	1764.597534
1.749596	1611.990601
1.749669	1687.867432
1.749742	1734.112305
1.749816	1797.257202
1.749889	1687.027344
1.749962	1703.657227
1.750035	1728.734985
1.750109	1652.379517
1.750182	1702.809448
1.750256	1689.853027
1.750329	1824.738525
1.750402	1837.105591
1.750476	1769.240356
1.750549	1735.172241
1.750623	1751.769043
1.750696	1717.715088
1.750769	1772.286621
1.750843	1852.154297
1.750916	1746.388916
1.750990	1640.658569
1.751063	1745.809814
1.751137	1787.682739
1.751211	1745.230957
1.751284	1698.578491
1.751358	1812.078491
1.751431	1820.204956
1.751505	1744.073975
1.751578	1823.813599
1.751652	1794.031860
1.751725	1911.632568
1.751799	1873.426270
1.751873	1692.118042
1.751946	1851.762573
1.752020	1750.467163
1.752094	1872.184692
1.752167	1951.797119
1.752241	1745.391357
1.752315	1795.562988
1.752389	1866.739746
1.752462	1820.190063
1.752536	1782.061768
1.752610	1903.632690
1.752684	1798.277710
1.752757	1726.564697
1.752831	1848.084351
1.752905	1931.768066
1.752979	1876.863770
1.753053	1796.788940
1.753127	1960.190308
1.753200	1821.374146
1.753274	1896.600830
1.753348	1938.239990
1.753422	1883.388916
1.753496	1736.289307
1.753570	1912.117920
1.753644	1832.142944
1.753718	1794.112915
1.753792	1869.256714
1.753866	1919.232910
1.753940	1956.623169
1.754014	1964.677368
1.754088	1884.772827
1.754162	2047.780884
1.754236	1792.035034
1.754310	1950.817993
1.754384	1971.423218
1.754458	1912.508179
1.754532	1962.402344
1.754606	1953.710571
1.754680	1894.827515
1.754754	1978.156982
1.754828	1944.377930
1.754902	1990.044678
1.754977	1935.374512
1.755051	1947.592407
1.755125	1963.984985
1.755199	2013.796143
1.755273	1942.448730
1.755347	2017.306641
1.755422	2050.380371
1.755496	1857.980347
1.755570	2074.749512
1.755645	1978.407593
1.755719	2040.677979
1.755793	2023.650513
1.755867	2048.346680
1.755942	1989.612549
1.756016	2001.794800
1.756090	2068.179199
1.756165	2038.654175
1.756239	2130.020508
1.756314	2012.974243
1.756388	2016.808350
1.756462	2008.142456
1.756537	1986.982544
1.756611	2082.446777
1.756685	1919.698486
1.756760	2090.085449
1.756834	2098.065674
1.756909	2006.151733
1.756983	2180.601318
1.757058	2067.900146
1.757132	2050.918213
1.757207	2088.013672
1.757281	2075.192627
1.757356	2137.219971
1.757431	2053.720215
1.757505	2157.297119
1.757580	2111.225098
1.757654	2031.926270
1.757729	2031.590576
1.757804	2151.718018
1.757878	2084.911133
1.757953	2180.074707
1.758028	2154.803711
1.758102	2166.901123
1.758177	2203.897461
1.758252	2087.339600
1.758326	2111.889648
1.758401	2086.650391
1.758476	2144.374023
1.758550	2102.549316
1.758625	2073.177734
1.758700	2097.709473
1.758775	2171.972900
1.758850	2130.171143
1.758924	2129.819580
1.758999	2071.466797
1.759074	2170.538818
1.759149	2294.427490
1.759224	2140.836182
1.759298	2115.641602
1.759373	2061.478760
1.759448	2342.579102
1.759523	2155.975830
1.759598	2308.706055
1.759673	2204.905518
1.759748	2154.908447
1.759823	2171.094482
1.759898	2129.388916
1.759973	2286.131592
1.760048	2215.487061
1.760123	2095.273682
1.760198	2156.907959
1.760273	2230.916016
1.760348	2214.025391
1.760423	2321.039063
1.760498	2287.622070
1.760573	2192.286865
1.760648	2270.355713
1.760723	2236.963379
1.760798	2273.733398
1.760874	2289.861816
1.760949	2231.731445
1.761024	2338.600830
1.761099	2309.348389
1.761174	2259.489746
1.761249	2279.729492
1.761325	2341.180420
1.761400	2287.219971
1.761475	2336.288086
1.761550	2274.106445
1.761626	2319.041504
1.761701	2401.027100
1.761776	2470.632568
1.761851	2322.011719
1.761927	2259.883545
1.762002	2358.287598
1.762077	2374.358887
1.762153	2357.510254
1.762228	2299.530518
1.762303	2360.845947
1.762379	2274.098877
1.762454	2269.612305
1.762529	2409.010254
1.762605	2396.282471
1.762680	2375.339844
1.762756	2432.473145
1.762831	2366.340576
1.762907	2378.273438
1.762982	2381.988525
1.763058	2278.940918
1.763133	2303.198730
1.763209	2499.852051
1.763284	2409.148438
1.763360	2306.164063
1.763435	2338.606934
1.763511	2444.877441
1.763586	2362.445313
1.763662	2468.676758
1.763738	2496.970947
1.763813	2558.051514
1.763889	2430.568359
1.763964	2421.971924
1.764040	2487.131836
1.764116	2421.174316
1.764191	2547.753906
1.764267	2494.094238
1.764343	2456.831055
1.764419	2509.649170
1.764494	2410.995117
1.764570	2672.530762
1.764646	2520.686035
1.764722	2520.270996
1.764797	2593.488281
1.764873	2441.731445
1.764949	2576.277344
1.765025	2359.154541
1.765100	2481.405762
1.765176	2509.608398
1.765252	2582.754883
1.765328	2561.900146
1.765404	2569.649170
1.765480	2434.433838
1.765556	2466.704834
1.765632	2478.548584
1.765708	2649.610352
1.765783	2673.665771
1.765859	2522.219238
1.765935	2676.866699
1.766011	2549.948975
1.766087	2627.035156
1.766163	2471.617188
1.766239	2560.924316
1.766315	2568.657715
1.766391	2735.374268
1.766467	2588.192139
1.766544	2685.571777
1.766620	2615.862793
1.766696	2729.501221
1.766772	2729.052246
1.766848	2610.499756
1.766924	2683.364258
1.767000	2585.214111
1.767076	2552.224854
1.767152	2572.154297
1.767229	2592.077393
1.767305	2648.610596
1.767381	2619.700195
1.767457	2680.277344
1.767533	2614.772461
1.767610	2732.252197
1.767686	2630.173584
1.767762	2605.354004
1.767838	2625.245117
1.767915	2754.835205
1.767991	2766.570068
1.768067	2688.940186
1.768144	2566.663086
1.768220	2785.508545
1.768296	2821.589355
1.768373	2711.528076
1.768449	2784.135498
1.768525	2730.926270
1.768602	2876.535645
1.768678	2827.385010
1.768755	2591.681641
1.768831	2830.510986
1.768908	2720.574463
1.768984	2930.927246
1.769060	2922.339355
1.769137	2824.598877
1.769214	2888.964355
1.769290	2783.159180
1.769367	2912.318604
1.769443	2774.145264
1.769520	2712.951904
1.769596	2712.506348
1.769673	2780.874268
1.769749	2881.597412
1.769826	2747.588867
1.769903	2819.963135
1.769979	2876.132813
1.770056	2794.769775
1.770132	2972.240967
1.770209	2826.197754
1.770286	2971.264893
1.770362	2796.976563
1.770439	2905.630127
1.770516	2981.923340
1.770593	2941.034912
1.770669	2783.022705
1.770746	2923.915283
1.770823	2943.624756
1.770900	2805.875732
1.770976	2938.621826
1.771053	2873.564941
1.771130	2965.904053
1.771207	3021.901367
1.771284	3089.981934
1.771361	2770.847656
1.771437	2947.827148
1.771514	2935.247559
1.771591	3096.016602
1.771668	2954.437256
1.771745	2889.473389
1.771822	3013.906982
1.771899	2876.439209
1.771976	2944.442871
1.772053	3068.806152
1.772130	2875.023682
1.772207	2930.915771
1.772284	3155.853027
1.772361	2962.151611
1.772438	2969.713623
1.772515	3077.856689
1.772592	3041.147705
1.772669	3096.957275
1.772746	2899.402588
1.772823	3007.486084
1.772900	3015.032715
1.772977	2966.305664
1.773054	3138.624512
1.773132	3041.676270
1.773209	3041.177490
1.773286	3125.030518
1.773363	3072.308838
1.773440	3124.005615
1.773517	3067.286621
1.773595	2922.275635
1.773672	3070.294434
1.773749	3117.944580
1.773826	2972.996338
1.773904	3209.186523
1.773981	3092.346436
1.774058	3147.981934
1.774136	3159.494385
1.774213	3223.118164
1.774290	3090.319336
1.774368	3097.827881
1.774445	3217.526611
1.774522	3076.781494
1.774600	3240.505371
1.774677	3159.876221
1.774755	3167.366943
1.774832	3302.970215
1.774909	3170.331787
1.774987	3245.855713
1.775064	3245.323975
1.775142	3128.763916
1.775219	3100.249023
1.775297	3231.729980
1.775374	3231.200439
1.775452	3362.616943
1.775529	3442.020020
1.775607	3253.594971
1.775684	3213.098145
1.775762	3288.490723
1.775840	3295.942139
1.775917	3295.402344
1.775995	3210.993408
1.776072	3326.267822
1.776150	3361.655273
1.776228	3357.112793
1.776305	3320.642578
1.776383	3495.680908
1.776461	3363.443359
1.776538	3247.205811
1.776616	3306.502197
1.776694	3198.287842
1.776772	3321.368408
1.776849	3472.314941
1.776927	3216.646729
1.777005	3212.134766
1.777083	3418.809326
1.777161	3358.490234
1.777238	3322.090332
1.777316	3333.494629
1.777394	3424.535156
1.777472	3459.806885
1.777550	3415.452637
1.777628	3371.113037
1.777706	3271.075928
1.777783	3409.797119
1.777861	3361.501709
1.777939	3400.726074
1.778017	3356.424805
1.778095	3387.684570
1.778173	3403.032227
1.778251	3474.022705
1.778329	3465.505859
1.778407	3552.356934
1.778485	3341.211670
1.778563	3416.137939
1.778641	3359.976563
1.778719	3486.497314
1.778797	3422.401855
1.778875	3588.567383
1.778953	3290.304932
1.779032	3611.203613
1.779110	3332.873291
1.779188	3586.219727
1.779266	3411.111084
1.779344	3577.114990
1.779422	3477.402100
1.779500	3623.518555
1.779579	3377.169434
1.779657	3630.259521
1.779735	3447.390137
1.779813	3589.453613
1.779892	3620.556396
1.779970	3659.570068
1.780048	3540.173828
1.780126	3535.635498
1.780205	3515.264160
1.780283	3641.344971
1.780361	3581.389404
1.780440	3703.461182
1.780518	3512.965576
1.780596	3615.231689
1.780675	3551.364502
1.780753	3570.554443
1.780832	3692.527832
1.780910	3723.546631
1.780988	3667.607666
1.781067	3591.929199
1.781145	3753.327881
1.781224	3646.058350
1.781302	3716.554688
1.781381	3688.304688
1.781459	3636.374268
1.781538	3726.575684
1.781616	3654.920654
1.781695	3701.679443
1.781773	3677.400391
1.781852	3739.920410
1.781931	3759.031250
1.782009	3801.798584
1.782088	3718.371582
1.782166	3824.211182
1.782245	3859.062744
1.782324	3755.961182
1.782402	3956.315674
1.782481	3664.115967
1.782560	3750.181152
1.782638	3765.322998
1.782717	3674.134277
1.782796	3925.523682
1.782875	3704.427490
1.782953	3865.200439
1.783032	3833.085938
1.783111	3741.960205
1.783190	3792.492432
1.783268	3890.209961
1.783347	3917.104492
1.783426	3885.007080
1.783505	3884.372803
1.783584	3919.116455
1.783663	3977.430420
1.783742	3788.158936
1.783820	3995.776367
1.783899	4002.980713
1.783978	3923.772949
1.784057	3832.809814
1.784136	3918.565186
1.784215	3827.632568
1.784294	3936.911377
1.784373	3951.966553
1.784452	3794.367188
1.784531	4084.065430
1.784610	3961.799072
1.784689	4070.966309
1.784768	4015.403809
1.784847	3861.842773
1.784926	4065.052979
1.785005	3946.808350
1.785084	4044.132324
1.785164	4055.226563
1.785243	4054.564697
1.785322	4128.322266
1.785401	3998.414795
1.785480	4209.201172
1.785559	4048.003418
1.785638	3926.000977
1.785718	4031.027832
1.785797	4049.935059
1.785876	4045.361816
1.785955	4056.436768
1.786035	4032.308594
1.786114	4207.619629
1.786193	4105.278809
1.786273	4092.881348
1.786352	3994.500732
1.786431	4005.572754
1.786510	4122.136230
1.786590	4117.557129
1.786669	4070.013916
1.786748	4233.374023
1.786828	4193.636230
1.786907	4044.598145
1.786987	4020.518066
1.787066	4254.028809
1.787146	4108.955566
1.787225	4100.482422
1.787304	4076.408447
1.787384	4266.854980
1.787463	4273.958496
1.787543	4226.474121
1.787622	4233.581055
1.787702	4061.392578
1.787781	4294.553223
1.787861	4293.853027
1.787941	4351.589844
1.788020	4241.815918
1.788100	4237.229980
1.788179	4189.812500
1.788259	4270.887207
1.788339	4180.661133
1.788418	4320.090332
1.788498	4451.691406
1.788578	4299.228516
1.788657	4271.296875
1.788737	4247.264160
1.788817	4223.238770
1.788896	4335.307129
1.788976	4381.250977
1.789056	4275.590332
1.789136	4399.254395
1.789215	4285.853516
1.789295	4479.405273
1.789375	4311.647461
1.789455	4268.223633
1.789535	4248.112305
1.789614	4270.714844
1.789694	4339.892090
1.789774	4304.253906
1.789854	4478.178223
1.789934	4349.410156
1.790014	4243.960449
1.790094	4429.445313
1.790174	4327.894531
1.790254	4249.641113
1.790334	4334.237793
1.790413	4476.948730
1.790493	4394.833496
1.790573	4401.867188
1.790653	4370.156250
1.790734	4400.433105
1.790814	4411.335449
1.790894	4368.020508
1.790974	4591.869629
1.791054	4389.824219
1.791134	4598.114258
1.791214	4481.270508
1.791294	4399.287109
1.791374	4526.233398
1.791454	4544.835938
1.791534	4416.474609
1.791615	4562.689453
1.791695	4523.285645
1.791775	4580.530273
1.791855	4606.837891
1.791935	4447.656738
1.792016	4473.977051
1.792096	4662.531250
1.792176	4294.855469
1.792256	4394.559082
1.792337	4459.480957
1.792417	4705.819824
1.792497	4635.578125
1.792578	4619.386719
1.792658	4468.152832
1.792738	4575.445801
1.792819	4555.414551
1.792899	4662.658691
1.792979	4604.059570
1.793060	4560.900879
1.793140	4621.834473
1.793221	4636.498535
1.793301	4558.673828
1.793381	4681.223633
1.793462	4603.416992
1.793542	4594.964355
1.793623	4632.726074
1.793703	4624.271484
1.793784	4565.772949
1.793864	4718.993652
1.793945	4772.104492
1.794026	4705.914551
1.794106	4793.634766
1.794187	4638.990723
1.794267	4676.695313
1.794348	4748.996094
1.794428	4848.186035
1.794509	4639.815918
1.794590	4796.643066
1.794670	4795.862793
1.794751	4841.188965
1.794832	4775.094238
1.794912	4716.702637
1.794993	4815.784180
1.795074	4868.756836
1.795155	4687.527344
1.795235	4744.341797
1.795316	4751.245605
1.795397	4754.310059
1.795478	4860.961426
1.795559	4883.186035
1.795639	4798.014160
1.795720	4870.093750
1.795801	4807.956055
1.795882	4960.512695
1.795963	4756.564941
1.796044	4771.120117
1.796125	4908.281738
1.796205	4719.765625
1.796286	4841.569336
1.796367	4944.185059
1.796448	4832.336914
1.796529	4812.408203
1.796610	4823.109375
1.796691	4837.634277
1.796772	4863.633789
1.796853	4920.232910
1.796934	4789.370117
1.797015	4888.035156
1.797096	4917.833008
1.797177	4909.386719
1.797258	4916.234375
1.797340	4877.212402
1.797421	4968.138672
1.797502	4860.342285
1.797583	5031.470215
1.797664	4938.977539
1.797745	4991.643066
1.797826	4864.819824
1.797908	4864.028809
1.797989	4798.344238
1.798070	5026.564941
1.798151	4823.497070
1.798232	5013.484863
1.798314	4944.002930
1.798395	4908.871582
1.798476	4908.074219
1.798558	5067.420410
1.798639	5005.599609
1.798720	4917.116699
1.798802	5106.872559
1.798883	4961.244141
1.798964	5070.923828
1.799046	5035.816895
1.799127	5164.491699
1.799208	5110.340332
1.799290	4812.534180
1.799371	5051.578125
1.799453	4993.665039
1.799534	5133.658203
1.799616	5071.945801
1.799697	5052.100098
1.799778	4937.168945
1.799860	5339.491211
1.799942	5110.477051
1.800023	5162.872559
1.800105	5097.413086
1.800186	5195.400391
1.800268	4981.758301
1.800349	5129.123535
1.800431	5006.730957
1.800513	5173.035156
1.800594	5194.979492
1.800676	5258.682617
1.800757	5007.274902
1.800839	5165.878906
1.800921	5138.475098
1.801003	5403.249512
1.801084	5129.218262
1.801166	5147.351074
1.801248	5157.893066
1.801329	5198.766602
1.801411	5186.548340
1.801493	5367.661133
1.801575	5146.963379
1.801656	5112.021973
1.801738	5114.980957
1.801820	5360.387207
1.801902	5170.134277
1.801984	5222.313477
1.802066	5229.038086
1.802148	5284.976074
1.802229	5155.421875
1.802311	5427.073730
1.802393	5297.538574
1.802475	5239.928223
1.802557	5318.514648
1.802639	5313.869141
1.802721	5226.032227
1.802803	5497.407715
1.802885	5231.895996
1.802967	5272.623047
1.803049	5343.568848
1.803131	5456.054688
1.803213	5220.944336
1.803295	5442.951660
1.803377	5396.749512
1.803459	5339.233887
1.803541	5489.381836
1.803623	5379.022949
1.803706	5408.343262
1.803788	5479.162598
1.803870	5357.540039
1.803952	5349.125977
1.804034	5344.486328
1.804116	5520.859375
1.804199	5418.161133
1.804281	5307.956055
1.804363	5314.633301
1.804445	5313.770996
1.804528	5410.876953
1.804610	5368.557617
1.804692	5397.820801
1.804775	5332.919922
1.804857	5501.505859
1.804939	5572.147461
1.805022	5416.904785
1.805104	5543.993164
1.805186	5482.883789
1.805269	5308.918457
1.805351	5372.009766
1.805434	5337.286133
1.805516	5633.515137
1.805598	5512.278809
1.805681	5443.713867
1.805763	5450.348633
1.805846	5445.706543
1.805928	5444.823242
1.806011	5646.819824
1.806093	5510.672363
1.806176	5577.383301
1.806258	5640.317383
1.806341	5406.617676
1.806423	5484.574219
1.806506	5539.985840
1.806589	5486.548340
1.806671	5609.479980
1.806754	5507.278320
1.806836	5652.671875
1.806919	5509.242676
1.807002	5654.588379
1.807084	5743.650391
1.807167	5570.287598
1.807250	5501.922363
1.807333	5624.690918
1.807415	5537.604980
1.807498	5574.167969
1.807581	5588.246094
1.807664	5553.636230
1.807746	5713.738770
1.807829	5630.452148
1.807912	5614.567383
1.807995	5621.142090
1.808078	5605.263184
1.808160	5548.236328
1.808243	5667.036621
1.808326	5479.117188
1.808409	5691.375000
1.808492	5671.758789
1.808575	5532.525879
1.808658	5677.395020
1.808741	5534.469727
1.808824	5529.836426
1.808907	5936.138672
1.808990	5580.335938
1.809073	5691.468262
1.809156	5645.738770
1.809239	5488.022949
1.809322	5572.986328
1.809405	5527.297852
1.809488	5776.414551
1.809571	5678.474609
1.809654	5770.812500
1.809737	5568.472168
1.809820	5757.754883
1.809903	5734.450684
1.809987	5808.079590
1.810070	5751.229004
1.810153	5750.296875
1.810236	5719.556641
1.810319	5651.570801
1.810403	5661.829590
1.810486	5757.743652
1.810569	5749.363770
1.810652	5733.540039
1.810735	5751.223145
1.810819	5925.219238
1.810902	5648.885742
1.810985	5685.177246
1.811069	5900.019531
1.811152	5657.298828
1.811235	5749.354004
1.811319	5912.025879
1.811402	5695.444336
1.811486	5787.448242
1.811569	5924.019043
1.811652	5822.731934
1.811736	5977.828613
1.811819	5802.272461
1.811903	5886.755371
1.811986	5919.223145
1.812070	5710.345215
1.812153	5809.650879
1.812237	5912.635742
1.812320	5937.655273
1.812404	5714.067871
1.812487	5746.530762
1.812571	5994.118652
1.812654	5748.378418
1.812738	5829.023926
1.812822	5735.394531
1.812905	5834.549805
1.812989	5900.317383
1.813072	5929.006836
1.813156	5924.341797
1.813240	5964.131348
1.813323	5811.308594
1.813407	5832.586914
1.813491	5727.968750
1.813575	5904.738770
1.813658	5770.531250
1.813742	5943.536133
1.813826	5983.276367
1.813910	5937.912109
1.813993	5885.164551
1.814077	5954.481934
1.814161	5964.611328
1.814245	5878.609375
1.814329	5977.466797
1.814413	6017.155762
1.814497	5783.368652
1.814580	5970.869629
1.814664	6014.234375
1.814748	5780.560547
1.814832	5635.596191
1.814916	5797.151855
1.815000	5825.748535
1.815084	6049.972168
1.815168	6174.475586
1.815252	6000.042969
1.815336	5844.114258
1.815420	6075.567383
1.815504	6052.454102
1.815588	5981.408691
1.815672	6009.937500
1.815756	6064.262207
1.815840	5890.043945
1.815925	6047.558105
1.816009	6068.687988
1.816093	6078.757813
1.816177	6040.939453
1.816261	6076.791016
1.816345	6064.760742
1.816429	5949.645996
1.816514	5996.538086
1.816598	5932.999023
1.816682	5843.720703
1.816766	5971.551758
1.816851	6036.802734
1.816935	5947.550781
1.817019	6005.429199
1.817104	6210.366699
1.817188	5904.224609
1.817272	5954.729980
1.817356	6064.021484
1.817441	6132.856934
1.817525	5790.185059
1.817610	5972.917480
1.817694	6140.899414
1.817778	6147.250488
1.817863	5966.347656
1.817947	6156.274902
1.818032	5931.383789
1.818116	6029.509766
1.818201	5962.488281
1.818285	6067.914063
1.818370	6000.907715
1.818454	5959.595215
1.818539	6039.302246
1.818623	6140.980469
1.818708	6176.644043
1.818792	6021.711914
1.818877	6035.395996
1.818961	6030.755859
1.819046	6070.076660
1.819131	6014.154785
1.819215	6071.775879
1.819300	6220.916016
1.819385	6150.352539
1.819469	6394.600098
1.819554	6126.404785
1.819639	6099.800293
1.819723	6128.082520
1.819808	6002.720703
1.819893	6107.813965
1.819978	6143.394043
1.820063	6018.089844
1.820147	6192.585938
1.820232	6023.454102
1.820317	6263.671875
1.820402	6112.852051
1.820487	6225.114258
1.820571	6048.780762
1.820656	6124.495605
1.820741	6101.596680
1.820826	6177.278809
1.820911	5979.164551
1.820996	6021.994629
1.821081	6163.335938
1.821166	6311.928711
1.821251	6219.709961
1.821336	6185.878418
1.821421	6217.699219
1.821506	6081.786621
1.821591	6055.284180
1.821676	6108.980469
1.821761	6140.792480
1.821846	6154.375000
1.821931	6160.666504
1.822016	6188.811523
1.822101	6111.328613
1.822186	6183.169922
1.822272	5992.845703
1.822357	6173.890625
1.822442	6027.305664
1.822527	6077.278809
1.822612	6170.897461
1.822697	6326.330566
1.822783	6085.244629
1.822868	6178.816406
1.822953	6203.270996
1.823038	6042.303711
1.823124	6110.391602
1.823209	6025.813477
1.823294	6213.797363
1.823380	6194.626953
1.823465	6182.728027
1.823550	6294.322266
1.823636	6264.253418
1.823721	6412.106445
1.823806	6258.599121
1.823892	6105.140625
1.823977	6256.576660
1.824063	6262.822754
1.824148	6261.810547
1.824233	6166.487793
1.824319	6176.372070
1.824404	6262.402344
1.824490	6156.248535
1.824575	6227.753906
1.824661	6176.005859
1.824746	6124.274414
1.824832	6199.373047
1.824918	6187.503418
1.825003	6150.283203
1.825089	6305.013672
1.825174	6303.995117
1.825260	6038.693359
1.825346	6254.902344
1.825431	6293.702148
1.825517	6071.953125
1.825603	6280.815430
1.825688	6410.026855
1.825774	6210.066895
1.825860	6299.469727
1.825945	6370.765137
1.826031	6362.505859
1.826117	6162.682129
1.826203	6074.953125
1.826288	6149.851563
1.826374	6213.887207
1.826460	6281.514160
1.826546	6240.772461
1.826632	6127.824219
1.826717	6245.977539
1.826803	6385.751465
1.826889	6272.833984
1.826975	6282.646973
1.827061	6328.537109
1.827147	6291.440430
1.827233	6351.741699
1.827319	6137.943359
1.827405	6147.769531
1.827491	6236.905273
1.827577	6326.012695
1.827663	6231.287598
1.827749	6291.539063
1.827835	6160.821777
1.827921	6361.552246
1.828007	6194.848633
1.828093	6366.700195
1.828179	6329.666992
1.828265	6209.848145
1.828351	6320.424805
1.828438	6215.040527
1.828524	6397.543457
1.828610	6198.643066
1.828696	6251.597656
1.828782	6257.781250
1.828868	6296.325195
1.828955	6306.094238
1.829041	6157.694336
1.829127	6203.423340
1.829213	6281.479492
1.829300	6319.987793
1.829386	6326.152344
1.829472	6199.418945
1.829558	6266.650879
1.829645	6215.370605
1.829731	6354.378906
1.829818	6288.742676
1.829904	6115.460938
1.829990	6329.772461
1.830077	6152.952148
1.830163	6169.894531
1.830250	6272.909180
1.830336	6189.418945
1.830422	6446.569336
1.830509	6266.287109
1.830595	6283.197266
1.830682	6310.852539
1.830768	6263.253418
1.830855	6230.000000
1.830941	6186.011230
1.831028	6073.990723
1.831115	6277.115234
1.831201	6447.952148
1.831288	6275.089355
1.831374	6059.333496
1.831461	6494.929199
1.831547	6200.493652
1.831634	6253.152832
1.831721	6219.953125
1.831807	6093.783691
1.831894	6393.149414
1.831981	6334.917480
1.832068	6248.108887
1.832154	6218.509766
1.832241	6199.640137
1.832328	6295.102539
1.832415	6229.788574
1.832501	6335.930176
1.832588	6349.191406
1.832675	6355.307617
1.832762	6322.153809
1.832849	6396.087891
1.832936	6266.583984
1.833022	6336.934570
1.833109	6318.074707
1.833196	6274.251953
1.833283	6358.832520
1.833370	6129.596191
1.833457	6470.867676
1.833544	6334.367676
1.833631	6148.014160
1.833718	6261.054199
1.833805	6224.414551
1.833892	6333.843262
1.833979	6386.248047
1.834066	6299.749023
1.834153	6302.293457
1.834240	6148.194824
1.834327	6335.854980
1.834414	6320.597168
1.834501	6184.361328
1.834589	6076.631348
1.834676	6143.237793
1.834763	6231.161621
1.834850	6230.156250
1.834937	6097.599609
1.835024	6128.610352
1.835111	6166.718750
1.835199	6105.311035
1.835286	6381.472656
1.835373	6209.918945
1.835461	6194.709473
1.835548	6147.541504
1.835635	6245.974121
1.835722	6188.162109
1.835810	6229.760742
1.835897	6125.830566
1.835984	6220.654297
1.836072	6311.899414
1.836159	5988.064941
1.836246	6263.754395
1.836334	6166.994629
1.836421	6293.645508
1.836509	6356.443359
1.836596	6412.131348
1.836684	6244.529297
1.836771	6239.979004
1.836859	6068.915527
1.836946	6227.339355
1.837034	6180.292969
1.837121	6374.059570
1.837209	6217.246582
1.837296	6241.023926
1.837384	6204.623047
1.837471	6313.327148
1.837559	6248.620117
1.837647	6297.140625
1.837734	6151.102051
1.837822	6174.866211
1.837910	6177.406738
1.837997	6392.072266
1.838085	6228.437988
1.838173	6167.350586
1.838260	6141.620117
1.838348	6317.288086
1.838436	6171.433105
1.838524	6343.507324
1.838611	6127.065918
1.838699	6253.189941
1.838787	6050.954102
1.838875	6194.697754
1.838963	6239.578613
1.839051	6397.359863
1.839138	6262.263184
1.839226	6243.616211
1.839314	6263.770996
1.839402	6255.708496
1.839490	6219.442383
1.839578	6341.821777
1.839666	6171.617188
1.839754	6043.756348
1.839842	6233.050293
1.839930	6330.687500
1.840018	6216.951660
1.840106	6374.429688
1.840194	6295.935547
1.840282	6231.548828
1.840370	6297.426270
1.840458	6268.254883
1.840546	6256.687500
1.840634	6297.899902
1.840722	6082.298340
1.840810	6222.007813
1.840898	6206.937988
1.840987	6227.034180
1.841075	6025.644531
1.841163	6056.308105
1.841251	6213.480469
1.841339	6187.882324
1.841428	6236.070801
1.841516	6322.883789
1.841604	6241.084961
1.841692	6261.148926
1.841781	6031.923828
1.841869	6139.775391
1.841957	6237.062988
1.842046	6292.206543
1.842134	6182.421387
1.842222	6100.736816
1.842311	6247.073730
1.842399	6347.771484
1.842487	6153.891602
1.842576	6082.781250
1.842664	6050.252930
1.842753	6171.945801
1.842841	6209.497559
1.842930	6033.313965
1.843018	6260.043457
1.843107	6195.988770
1.843195	6279.037598
1.843284	6222.003418
1.843372	6091.469727
1.843461	6142.992188
1.843549	6222.496094
1.843638	5920.566406
1.843726	6157.516113
1.843815	6006.108887
1.843904	6033.121094
1.843992	6241.962891
1.844081	5978.731934
1.844170	6166.540039
1.844258	6071.176270
1.844347	6314.823242
1.844436	6076.208008
1.844525	6092.696777
1.844613	6165.067383
1.844702	6226.937012
1.844791	6100.228027
1.844880	6214.457031
1.844968	6244.872070
1.845057	6086.809570
1.845146	6194.005859
1.845235	6049.958496
1.845324	6146.660156
1.845412	6072.424316
1.845501	6203.964844
1.845590	6112.309082
1.845679	6100.865723
1.845768	6096.397461
1.845857	6025.713867
1.845946	6031.711914
1.846035	6187.518555
1.846124	6099.437012
1.846213	6014.866211
1.846302	6087.025391
1.846391	5845.806152
1.846480	6043.290527
1.846569	6028.394531
1.846658	6072.664063
1.846747	6019.493652
1.846836	6213.343262
1.846925	6174.080566
1.847015	6006.151855
1.847104	6064.297363
1.847193	5979.880371
1.847282	6187.484375
1.847371	6050.940918
1.847460	6011.741211
1.847550	6208.815918
1.847639	6225.185547
1.847728	6053.990234
1.847817	5875.904297
1.847907	6145.789551
1.847996	5901.785156
1.848085	5918.189941
1.848175	5931.118652
1.848264	6006.502930
1.848353	5998.596680
1.848442	5883.158691
1.848532	6048.688965
1.848621	6124.004395
1.848711	6168.091309
1.848800	6083.899414
1.848889	6006.666504
1.848979	6019.561035
1.849068	6046.311523
1.849158	6031.479980
1.849247	6085.929688
1.849337	5929.103027
1.849426	5980.088867
1.849516	5951.428711
1.849605	6054.317871
1.849695	5966.817383
1.849785	5858.581543
1.849874	6096.372559
1.849964	5953.557129
1.850053	6090.950195
1.850143	6086.511230
1.850233	5860.781738
1.850322	6129.494141
1.850412	5886.546875
1.850502	5833.758789
1.850591	5853.552246
1.850681	5842.244629
1.850771	5810.214844
1.850861	5795.464355
1.850950	5860.142578
1.851040	5779.787109
1.851130	5861.707520
1.851220	6071.309570
1.851310	5966.801758
1.851399	5817.471191
1.851489	6016.628906
1.851579	5974.268066
1.851669	5869.842285
1.851759	5806.829102
1.851849	6033.440918
1.851939	6025.575195
1.852029	5897.082031
1.852119	5806.536133
1.852208	5809.046875
1.852298	5821.891113
1.852389	5903.618164
1.852479	5912.999512
1.852569	6029.117676
1.852659	5876.668457
1.852749	5806.879883
1.852839	5816.269531
1.852929	5825.656250
1.853019	5890.087402
1.853109	5944.178223
1.853199	5688.708008
1.853289	5808.150879
1.853379	6020.387695
1.853470	5747.839844
1.853560	5836.280273
1.853650	5797.538574
1.853740	5837.837402
1.853830	5792.236328
1.853921	5736.345215
1.854011	5687.340332
1.854101	5765.402832
1.854191	5747.308594
1.854282	5935.183105
1.854372	5755.754883
1.854462	5765.123047
1.854553	5702.436035
1.854643	5715.239746
1.854733	5865.238281
1.854824	5936.312012
1.854914	5853.063965
1.855004	5687.562988
1.855095	5806.618652
1.855185	5723.431152
1.855276	5825.309570
1.855366	5896.319824
1.855457	5837.136719
1.855547	5630.697266
1.855638	5718.826660
1.855728	5659.699707
1.855819	5693.022461
1.855909	5702.374512
1.856000	5622.745117
1.856091	5700.539063
1.856181	5624.356445
1.856272	5743.171875
1.856362	5731.987305
1.856453	5659.255371
1.856544	5665.182617
1.856634	5770.240723
1.856725	5622.344727
1.856816	5713.707031
1.856907	5740.121094
1.856997	5643.543945
1.857088	5523.088379
1.857179	5665.633301
1.857270	5603.259766
1.857360	5561.390137
1.857451	5676.551758
1.857542	5515.232422
1.857633	5667.900391
1.857724	5615.811035
1.857815	5526.215332
1.857905	5603.771973
1.857996	5568.768555
1.858087	5455.355469
1.858178	5648.793457
1.858269	5549.038086
1.858360	5711.726563
1.858451	5540.437012
1.858542	5416.898926
1.858633	5572.717285
1.858724	5650.152832
1.858815	5543.682129
1.858906	5518.957520
1.858997	5422.753906
1.859088	5612.480957
1.859179	5652.414063
1.859270	5661.711914
1.859362	5504.312500
1.859453	5455.807617
1.859544	5750.801758
1.859635	5447.251465
1.859726	5493.971191
1.859817	5367.316895
1.859909	5431.027344
1.860000	5644.233398
1.860091	5432.677246
1.860182	5540.507324
1.860273	5332.432129
1.860365	5531.932617
1.860456	5391.832520
1.860547	5475.835449
1.860639	5508.896973
1.860730	5362.080566
1.860821	5541.056152
1.860913	5492.667480
1.861004	5359.492676
1.861096	5545.165039
1.861187	5347.595215
1.861278	5390.810547
1.861370	5434.011719
1.861461	5456.862793
1.861553	5256.044922
1.861644	5350.070801
1.861736	5440.678711
1.861827	5395.770020
1.861919	5486.340820
1.862010	5400.805664
1.862102	5389.780273
1.862193	5246.743164
1.862285	5235.745605
1.862376	5258.590820
1.862468	5250.978027
1.862560	5371.914551
1.862651	5130.908691
1.862743	5278.879395
1.862835	5217.168945
1.862926	5378.600098
1.863018	5269.571777
1.863110	5309.278809
1.863201	5460.479980
1.863293	5287.299805
1.863385	5168.221680
1.863477	5245.069824
1.863569	5264.487305
1.863660	5233.253418
1.863752	5394.447754
1.863844	5295.698730
1.863936	5190.232422
1.864028	5047.684082
1.864120	5245.913086
1.864212	5110.147949
1.864303	5119.443359
1.864395	5030.949219
1.864487	5225.681152
1.864579	5083.264160
1.864671	5213.889160
1.864763	5101.847656
1.864855	5215.581055
1.864947	5288.853027
1.865039	5160.012695
1.865131	5024.478027
1.865223	5239.162109
1.865315	5137.323730
1.865408	4941.270020
1.865500	5031.341797
1.865592	5212.237305
1.865684	5043.180664
1.865776	5092.826660
1.865868	5115.550781
1.865960	5030.659180
1.866053	5197.959961
1.866145	4978.615723
1.866237	4984.537109
1.866329	4923.245117
1.866421	5033.334473
1.866514	4931.739746
1.866606	5031.715332
1.866698	5138.375000
1.866791	5056.959473
1.866883	4988.999512
1.866975	4971.413086
1.867068	4846.431641
1.867160	5053.706543
1.867252	5086.445313
1.867345	5052.081055
1.867437	5094.871582
1.867530	4812.353027
1.867622	4827.488281
1.867715	4842.623535
1.867807	4857.758789
1.867900	4872.894531
1.867992	4888.029785
1.868085	4903.165039
1.868177	4918.300293
1.868270	4933.435547
1.868362	4959.431641
1.868455	4895.018555
1.868547	4880.840820
1.868640	4786.337402
1.868733	4782.220703
1.868825	4754.683594
1.868918	4934.574219
1.869011	4746.464355
1.869103	4755.733887
1.869196	4811.814453
1.869289	4801.010742
1.869381	4847.037598
1.869474	4819.520020
1.869567	4675.051270
1.869660	4724.416992
1.869752	4817.194824
1.869845	4682.815918
1.869938	4788.928711
1.870031	4711.361328
1.870124	4650.510742
1.870216	4823.335938
1.870309	4732.450195
1.870402	4718.341309
1.870495	4620.828613
1.870588	4616.749512
1.870681	4859.481445
1.870774	4565.243652
1.870867	4687.874512
1.870960	4620.447754
1.871053	4706.365723
1.871146	4842.244629
1.871239	4574.901855
1.871332	4544.182617
1.871425	4736.648438
1.871518	4642.634277
1.871611	4492.041992
1.871704	4664.446777
1.871797	4597.119629
1.871891	4609.693359
1.871984	4662.196289
1.872077	4781.226563
1.872170	4564.222656
1.872263	4639.990234
1.872356	4642.569824
1.872450	4605.247070
1.872543	4627.778320
1.872636	4533.961426
1.872729	4556.496582
1.872823	4519.211426
1.872916	4448.713867
1.873009	4580.873535
1.873103	4503.746094
1.873196	4569.437988
1.873289	4518.898926
1.873383	4494.934082
1.873476	4524.083984
1.873569	4516.719238
1.873663	4446.311523
1.873756	4249.857910
1.873850	4441.564453
1.873943	4474.015625
1.874037	4410.291992
1.874130	4409.583008
1.874224	4335.944824
1.874317	4351.819824
1.874411	4483.674805
1.874504	4526.027344
1.874598	4366.284668
1.874691	4455.013672
1.874785	4315.204102
1.874879	4513.182617
1.874972	4403.204590
1.875066	4445.528320
1.875160	4309.119141
1.875253	4424.244141
1.875347	4380.521484
1.875441	4353.353027
1.875534	4276.580566
1.875628	4411.478027
1.875722	4295.043945
1.875816	4377.000488
1.875909	4290.356934
1.876003	4415.250488
1.876097	4355.062988
1.876191	4298.198730
1.876285	4218.229980
1.876378	4280.303223
1.876472	4183.851563
1.876566	4202.988770
1.876660	4301.346191
1.876754	4132.324707
1.876848	4227.361816
1.876942	4210.184570
1.877036	4130.331543
1.877130	4287.993164
1.877224	4191.664063
1.877318	4276.722168
1.877412	4160.644043
1.877506	4150.085938
1.877600	4106.573242
1.877694	4204.770996
1.877788	4098.663086
1.877882	4246.243652
1.877976	4126.988281
1.878070	4248.171387
1.878165	4072.978760
1.878259	4118.413086
1.878353	4255.996582
1.878447	4133.543945
1.878541	4027.583008
1.878635	4188.144531
1.878730	4187.470703
1.878824	4032.218018
1.878918	4120.356445
1.879012	4139.420898
1.879107	4082.870605
1.879201	4016.477783
1.879295	4022.404541
1.879390	4057.900879
1.879484	3935.695313
1.879578	3974.478516
1.879673	4019.817871
1.879767	4032.305908
1.879862	3982.410889
1.879956	3952.227295
1.880050	4082.873779
1.880145	4019.868408
1.880239	4025.783936
1.880334	3962.807617
1.880428	3827.692627
1.880523	4033.680420
1.880617	3977.290527
1.880712	4052.053223
1.880807	3956.344482
1.880901	4135.959961
1.880996	3781.402832
1.881090	4010.132568
1.881185	3934.145996
1.881280	3930.238037
1.881374	3900.134033
1.881469	3899.506836
1.881564	4036.371826
1.881658	3875.341309
1.881753	3999.075684
1.881848	3965.712158
1.881943	3886.558105
1.882037	3879.391113
1.882132	3868.955811
1.882227	3865.063721
1.882322	3975.602295
1.882416	3772.292236
1.882511	3889.346436
1.882606	3748.204102
1.882701	3786.809082
1.882796	3665.329346
1.882891	3847.650146
1.882986	3768.654053
1.883081	3745.191406
1.883176	3813.147461
1.883271	3698.288818
1.883365	3795.603271
1.883461	3775.414063
1.883555	3722.605713
1.883650	3741.579590
1.883746	3770.331543
1.883841	3779.508301
1.883936	3736.514404
1.884031	3817.412354
1.884126	3780.944824
1.884221	3731.453125
1.884316	3675.460449
1.884411	3740.026611
1.884506	3517.926270
1.884602	3680.201416
1.884697	3637.277832
1.884792	3623.669678
1.884887	3668.660400
1.884982	3648.542236
1.885078	3680.497559
1.885173	3689.666748
1.885268	3637.022949
1.885363	3698.238037
1.885459	3626.096924
1.885554	3635.268555
1.885649	3650.939453
1.885745	3523.581299
1.885840	3646.515137
1.885936	3470.456299
1.886031	3492.641113
1.886126	3605.774902
1.886222	3621.434814
1.886317	3734.511475
1.886413	3509.876221
1.886508	3506.065430
1.886604	3456.814209
1.886699	3637.995850
1.886795	3400.541016
1.886890	3484.345215
1.886986	3509.734863
1.887082	3496.197510
1.887177	3476.179199
1.887273	3576.127930
1.887368	3530.169434
1.887464	3325.409912
1.887560	3506.349854
1.887655	3583.548340
1.887751	3612.128418
1.887847	3420.443115
1.887942	3348.645264
1.888038	3425.819092
1.888134	3399.368408
1.888230	3314.660400
1.888325	3463.004150
1.888421	3481.862793
1.888517	3306.590820
1.888613	3522.796631
1.888709	3282.886719
1.888804	3576.639160
1.888900	3394.997559
1.888996	3504.367188
1.889092	3187.039063
1.889188	3354.578613
1.889284	3240.945557
1.889380	3421.345215
1.889476	3375.572021
1.889572	3400.866699
1.889668	3229.173584
1.889764	3283.541504
1.889860	3289.469727
1.889956	3314.761719
1.890052	3298.093262
1.890148	3365.320801
1.890244	3316.388916
1.890340	3344.885254
1.890436	3289.521973
1.890532	3363.156738
1.890628	3285.240234
1.890725	3345.957764
1.890821	3322.858887
1.890917	3235.319092
1.891013	3180.026367
1.891109	3260.049561
1.891206	3269.187988
1.891302	3139.847900
1.891398	3387.270752
1.891495	3306.242920
1.891591	3254.210449
1.891687	3276.215088
1.891783	3249.946045
1.891880	3288.030273
1.891976	3200.649658
1.892072	3113.297119
1.892169	3273.581543
1.892265	3324.497803
1.892362	3240.382080
1.892458	3272.002441
1.892555	3194.348877
1.892651	3129.572998
1.892748	3196.534180
1.892844	3260.261719
1.892941	3099.159180
1.893037	3146.826660
1.893134	3197.688965
1.893230	3184.334717
1.893327	3196.660400
1.893423	3035.697266
1.893520	3076.919189
1.893616	3098.879883
1.893713	3108.003906
1.893810	3133.159424
1.893906	3264.117920
1.894003	3109.710449
1.894100	3035.486816
1.894197	3156.783203
1.894293	3159.479736
1.894390	3130.137207
1.894487	3238.546387
1.894584	3084.291260
1.894680	3109.413574
1.894777	3262.598145
1.894874	3140.426025
1.894971	3232.742188
1.895068	3142.615967
1.895165	3103.714111
1.895262	3112.812500
1.895358	3073.927734
1.895455	3067.037109
1.895552	3012.183838
1.895649	3018.093750
1.895746	2969.658936
1.895843	3122.594238
1.895940	3128.483398
1.896037	3009.762207
1.896134	3018.861816
1.896231	2957.689453
1.896328	3021.084473
1.896425	2998.247314
1.896523	2969.032471
1.896620	3080.274902
1.896717	2926.588379
1.896814	2989.937012
1.896911	3014.979736
1.897008	3161.232178
1.897105	3023.578125
1.897203	3067.736816
1.897300	3022.605713
1.897397	2939.234375
1.897494	2926.012207
1.897591	2935.102051
1.897689	2886.834717
1.897786	2864.069580
1.897883	2971.909912
1.897981	2923.659668
1.898078	3066.483154
1.898175	2976.843750
1.898273	2855.400391
1.898370	2912.230957
1.898468	2883.122070
1.898565	3000.382813
1.898662	3053.981201
1.898760	2967.610596
1.898857	2865.366455
1.898955	2820.389893
1.899052	2889.878418
1.899150	2825.840088
1.899247	2958.868164
1.899345	2917.082764
1.899442	2938.853516
1.899540	2881.201660
1.899638	2918.851563
1.899735	2896.152832
1.899833	2822.659668
1.899930	2885.697510
1.900028	2831.273926
1.900126	2900.636963
1.900223	2843.055420
1.900321	2782.319824
1.900419	2832.624756
1.900517	2892.427979
1.900614	2898.304688
1.900712	2878.815430
1.900810	2840.312500
1.900908	2827.177734
1.901006	2861.581543
1.901103	2895.974365
1.901201	2787.798096
1.901299	2876.038086
1.901397	2812.236816
1.901495	2780.120117
1.901593	2960.129883
1.901691	2890.014893
1.901789	2797.768066
1.901887	2765.674072
1.901984	2898.112061
1.902083	2872.338867
1.902181	2846.573975
1.902279	2748.083008
1.902377	2861.467285
1.902475	2876.813721
1.902573	2784.687012
1.902671	2819.002441
1.902769	2831.188232
1.902867	2663.289795
1.902965	2808.165771
1.903063	2798.239258
1.903161	2744.106934
1.903260	2800.496094
1.903358	2825.299805
1.903456	2761.720215
1.903554	2833.857910
1.903653	2738.744873
1.903751	2832.946289
1.903849	2867.186768
1.903947	2680.656494
1.904045	2677.072021
1.904144	2723.931885
1.904242	2881.103271
1.904341	2710.448730
1.904439	2741.524414
1.904537	2678.069824
1.904636	2699.690186
1.904734	2837.840820
1.904832	2720.865479
1.904931	2720.427734
1.905029	2767.212158
1.905128	2716.404785
1.905226	2665.613770
1.905325	2772.169922
1.905423	2790.600586
1.905522	2670.618652
1.905620	2692.204590
1.905719	2760.952637
1.905818	2688.194336
1.905916	2738.059082
1.906015	2652.755615
1.906114	2743.463135
1.906212	2589.060547
1.906311	2736.297363
1.906410	2625.920166
1.906508	2697.730225
1.906607	2778.937256
1.906706	2640.350586
1.906804	2639.925781
1.906903	2589.284424
1.907002	2607.696045
1.907101	2544.526123
1.907200	2660.186035
1.907298	2606.437500
1.907397	2750.274170
1.907496	2662.037598
1.907595	2639.664307
1.907694	2767.753662
1.907793	2576.135254
1.907892	2638.390381
1.907991	2644.231689
1.908090	2637.541260
1.908188	2740.471680
1.908288	2580.326172
1.908386	2664.446777
1.908486	2560.713135
1.908584	2591.600586
1.908684	2613.089600
1.908783	2568.863770
1.908882	2568.450439
1.908981	2611.828369
1.909080	2714.613281
1.909179	2629.749268
1.909278	2676.222656
1.909377	2572.636475
1.909477	2622.229248
1.909576	2540.559326
1.909675	2599.514404
1.909774	2520.998047
1.909873	2598.677734
1.909973	2607.628174
1.910072	2454.210693
1.910171	2550.594727
1.910271	2665.676025
1.910370	2577.862061
1.910469	2571.206299
1.910568	2580.152100
1.910668	2570.378662
1.910767	2529.419434
1.910867	2625.682373
1.910966	2597.198975
1.911065	2618.602539
1.911165	2502.856445
1.911264	2595.945068
1.911364	2570.600342
1.911463	2573.302002
1.911563	2516.820068
1.911662	2625.417969
1.911762	2528.465332
1.911862	2646.366699
1.911961	2508.974365
1.912061	2474.334473
1.912160	2564.180420
1.912260	2551.322266
1.912359	2519.802979
1.912459	2538.059570
1.912559	2618.507568
1.912659	2456.399170
1.912758	2465.330322
1.912858	2592.376465
1.912958	2514.262695
1.913057	2541.824219
1.913157	2569.376709
1.913257	2447.814941
1.913357	2528.173584
1.913457	2543.293457
1.913556	2552.198486
1.913656	2499.013672
1.913756	2504.819092
1.913856	2482.692383
1.913956	2466.778320
1.914056	2494.302490
1.914156	2456.678711
1.914256	2493.499512
1.914356	2465.190430
1.914456	2567.105713
1.914556	2486.095947
1.914656	2541.484375
1.914756	2472.900146
1.914856	2512.780762
1.914956	2596.019043
1.915056	2487.192871
1.915156	2496.083008
1.915256	2427.561035
1.915356	2538.621826
1.915456	2497.973145
1.915557	2469.717041
1.915657	2342.449707
1.915757	2502.954834
1.915857	2434.497314
1.915957	2436.754150
1.916057	2439.010742
1.916158	2441.267578
1.916258	2443.524170
1.916358	2445.781006
1.916458	2448.037598
1.916559	2450.294434
1.916659	2539.492676
1.916759	2545.261719
1.916860	2526.321533
1.916960	2498.123535
1.917061	2568.731934
1.917161	2484.971436
1.917262	2561.731934
1.917362	2471.827637
1.917462	2471.429688
1.917563	2449.437256
1.917663	2470.633789
1.917764	2479.487793
1.917864	2411.252930
1.917965	2438.611328
1.918066	2469.042969
1.918166	2564.186035
1.918267	2483.655273
1.918367	2353.854980
1.918468	2402.763428
1.918569	2467.055908
1.918669	2559.042969
1.918770	2481.656494
1.918871	2496.649170
1.918971	2480.857178
1.919072	2412.752930
1.919173	2366.209473
1.919273	2433.511475
1.919374	2390.055664
1.919475	2365.066650
1.919576	2333.935547
1.919677	2422.720947
1.919777	2382.368408
1.919878	2394.278809
1.919979	2476.865234
1.920080	2454.958496
1.920181	2319.393311
1.920282	2417.309326
1.920383	2413.849121
1.920484	2499.436035
1.920585	2471.402832
1.920686	2474.074463
1.920787	2467.537842
1.920888	2430.317383
1.920989	2414.585693
1.921090	2417.264404
1.921191	2490.485352
1.921292	2471.684814
1.921393	2394.633789
1.921494	2421.838867
1.921595	2326.429932
1.921696	2310.731934
1.921798	2451.310059
1.921899	2386.578857
1.922000	2401.510254
1.922101	2425.624756
1.922202	2468.104248
1.922304	2464.645020
1.922405	2347.923340
1.922506	2482.215332
1.922607	2371.648682
1.922709	2398.803955
1.922810	2389.239990
1.922911	2514.262207
1.923013	2467.984131
1.923114	2348.335205
1.923216	2332.670654
1.923317	2384.259521
1.923418	2389.988037
1.923520	2294.874512
1.923621	2364.775879
1.923723	2391.887939
1.923824	2345.688477
1.923926	2406.386475
1.924027	2317.453125
1.924129	2390.347168
1.924230	2411.328369
1.924332	2337.696289
1.924433	2428.859619
1.924535	2352.197266
1.924637	2403.674316
1.924738	2506.982178
1.924840	2338.863281
1.924942	2375.072998
1.925043	2380.787109
1.925145	2450.505127
1.925247	2410.494141
1.925348	2394.871094
1.925450	2424.949463
1.925552	2324.043213
1.925654	2451.577148
1.925756	2286.755127
1.925857	2411.209229
1.925959	2374.293213
1.926061	2331.302002
1.926163	2416.130127
1.926265	2373.145752
1.926367	2430.561523
1.926468	2363.256592
1.926570	2399.368164
1.926672	2298.644043
1.926774	2395.554932
1.926876	2376.931641
1.926978	2251.947021
1.927080	2348.818604
1.927182	2466.925537
1.927284	2314.648193
1.927386	2314.275146
1.927488	2441.440186
1.927591	2243.698486
1.927693	2358.691162
1.927795	2385.627441
1.927897	2324.549805
1.927999	2454.644775
1.928101	2314.699707
1.928203	2311.293701
1.928306	2429.196533
1.928408	2277.194336
1.928510	2285.922607
1.928612	2376.491455
1.928715	2333.677979
1.928817	2315.120361
1.928919	2326.866211
1.929022	2311.344727
1.929124	2301.885986
1.929226	2340.883057
1.929329	2428.312500
1.929431	2219.035156
1.929533	2333.697754
1.929636	2357.532471
1.929738	2342.023193
1.929841	2393.077148
1.929943	2256.571289
1.930046	2313.671387
1.930148	2388.896484
1.930251	2355.253662
1.930353	2297.437988
1.930456	2357.516846
1.930558	2393.400635
1.930661	2365.821533
1.930764	2298.978271
1.930866	2325.792236
1.930969	2207.636475
1.931072	2297.866699
1.931174	2336.743896
1.931277	2369.571533
1.931380	2260.538818
1.931482	2308.455811
1.931585	2286.964111
1.931688	2280.562256
1.931791	2406.872070
1.931893	2322.046143
1.931996	2312.626221
1.932099	2215.783936
1.932202	2245.568604
1.932305	2251.234131
1.932407	2317.161865
1.932510	2325.826416
1.932613	2244.121094
1.932716	2300.982666
1.932819	2291.577881
1.932922	2318.305420
1.933025	2254.715332
1.933128	2383.773926
1.933231	2260.007080
1.933334	2346.899414
1.933437	2391.646240
1.933540	2337.118896
1.933643	2288.624023
1.933746	2366.434570
1.933849	2290.892578
1.933953	2353.647705
1.934056	2311.191895
1.934159	2373.923584
1.934262	2256.365967
1.934365	2256.002197
1.934468	2264.649170
1.934572	2372.393066
1.934675	2245.903564
1.934778	2269.557861
1.934881	2263.188721
1.934985	2379.866455
1.935088	2241.454834
1.935191	2352.097900
1.935295	2279.727295
1.935398	2315.349609
1.935501	2284.989502
1.935605	2260.635498
1.935708	2257.273193
1.935812	2268.898193
1.935915	2361.431152
1.936018	2331.087646
1.936122	2288.770996
1.936225	2270.430176
1.936329	2300.012207
1.936432	2320.601563
1.936536	2266.338135
1.936639	2394.687012
1.936743	2238.671143
1.936847	2256.264648
1.936950	2306.763184
1.937054	2345.279785
1.937157	2192.363281
1.937261	2278.733154
1.937365	2362.084961
1.937468	2430.462402
1.937572	2226.817383
1.937676	2268.297607
1.937779	2279.884033
1.937883	2393.043945
1.937987	2267.200195
1.938091	2317.606934
1.938195	2263.482910
1.938298	2310.887939
1.938402	2337.381836
1.938506	2298.203857
1.938610	2375.422363
1.938714	2249.723145
1.938818	2294.108643
1.938922	2237.066162
1.939026	2361.960938
1.939130	2292.998535
1.939234	2215.114746
1.939337	2193.891602
1.939442	2256.125000
1.939546	2297.479248
1.939650	2312.005371
1.939754	2278.864502
1.939858	2379.763428
1.939962	2275.151367
1.940066	2325.401123
1.940170	2283.348145
1.940274	2369.298584
1.940378	2342.132080
1.940482	2252.487793
1.940587	2237.249023
1.940691	2239.862793
1.940795	2221.656738
1.940899	2399.715820
1.941004	2277.429688
1.941108	2271.116699
1.941212	2410.443115
1.941316	2270.384033
1.941421	2258.132813
1.941525	2385.510498
1.941629	2304.928467
1.941734	2316.435547
1.941838	2259.645020
1.941943	2283.031006
1.942047	2252.979004
1.942152	2332.748047
1.942256	2308.632568
1.942360	2165.847900
1.942465	2263.390869
1.942569	2331.242676
1.942674	2262.660400
1.942778	2291.945313
1.942883	2211.533447
1.942988	2181.535889
1.943092	2264.163818
1.943197	2240.093750
1.943301	2284.171387
1.943406	2162.355225
1.943511	2351.552002
1.943616	2259.376221
1.943720	2350.792969
1.943825	2335.612549
1.943930	2358.913574
1.944034	2281.592041
1.944139	2290.100098
1.944244	2233.522705
1.944349	2265.698242
1.944453	2374.754639
1.944558	2350.716309
1.944663	2217.298828
1.944768	2208.073242
1.944873	2281.603027
1.944978	2340.333984
1.945083	2345.865234
1.945188	2256.866211
1.945293	2342.154297
1.945397	2214.794678
1.945503	2243.963135
1.945608	2391.206055
1.945712	2272.754883
1.945818	2213.364990
1.945922	2257.267822
1.946028	2327.708252
1.946133	2268.337891
1.946238	2197.189697
1.946343	2241.066650
1.946448	2193.531982
1.946553	2234.447510
1.946658	2225.244629
1.946764	2286.769531
1.946869	2289.346680
1.946974	2227.113037
1.947079	2267.989502
1.947184	2191.054199
1.947290	2314.369141
1.947395	2331.659424
1.947500	2260.637939
1.947606	2213.184082
1.947711	2251.080322
1.947816	2365.459229
1.947922	2150.337646
1.948027	2261.754639
1.948133	2314.321777
1.948238	2322.768799
1.948343	2310.634766
1.948449	2207.387451
1.948554	2256.990234
1.948660	2230.180908
1.948765	2356.147949
1.948871	2205.961914
1.948976	2343.639404
1.949082	2287.468994
1.949187	2295.907471
1.949293	2222.149902
1.949399	2283.426025
1.949504	2356.420166
1.949610	2350.171631
1.949716	2323.389893
1.949821	2323.014648
1.949927	2249.323730
1.950033	2269.485596
1.950138	2307.230713
1.950244	2242.371582
1.950350	2162.879639
1.950456	2200.623779
1.950562	2279.372314
1.950667	2240.923096
1.950773	2290.351563
1.950879	2222.629150
1.950985	2181.279541
1.951091	2295.096680
1.951197	2435.219238
1.951303	2335.325684
1.951409	2264.724609
1.951514	2246.805420
1.951620	2307.868652
1.951726	2304.571289
1.951832	2242.792725
1.951939	2151.797607
1.952044	2315.147217
1.952150	2183.251953
1.952257	2215.043701
1.952363	2354.929932
1.952469	2328.257813
1.952575	2228.574219
1.952681	2158.126221
1.952787	2216.174805
1.952893	2245.010742
1.953000	2259.242432
1.953106	2247.203613
1.953212	2252.676514
1.953318	2287.322510
1.953424	2219.861328
1.953531	2327.415283
1.953637	2187.066895
1.953743	2277.097656
1.953850	2302.966064
1.953956	2223.897705
1.954062	2354.677490
1.954169	2246.488770
1.954275	2316.044189
1.954382	2263.239746
1.954488	2245.399902
1.954594	2227.565918
1.954701	2221.383301
1.954807	2261.776855
1.954914	2313.799316
1.955020	2229.036377
1.955127	2182.124023
1.955234	2295.223633
1.955340	2227.955811
1.955447	2294.481689
1.955553	2218.512695
1.955660	2145.475586
1.955767	2238.142334
1.955873	2295.904785
1.955980	2339.119873
1.956087	2318.404785
1.956193	2213.457275
1.956300	2247.951416
1.956407	2311.473145
1.956514	2253.031494
1.956620	2281.696533
1.956727	2217.473877
1.956834	2234.527344
1.956941	2176.135742
1.957048	2242.508057
1.957154	2297.256348
1.957261	2302.685303
1.957368	2299.413330
1.957475	2243.957520
1.957582	2255.189453
1.957689	2260.621338
1.957796	2210.993896
1.957903	2265.685059
1.958010	2233.453613
1.958117	2227.299805
1.958224	2212.460205
1.958331	2243.952148
1.958438	2168.320557
1.958545	2318.483154
1.958652	2184.983643
1.958759	2314.840088
1.958867	2158.239258
1.958974	2076.896973
1.959081	2284.795898
1.959188	2220.809326
1.959295	2243.580078
1.959403	2248.998779
1.959510	2228.403076
1.959617	2187.585449
1.959724	2198.789063
1.959832	2264.877441
1.959939	2226.961914
1.960046	2290.136475
1.960154	2185.817139
1.960261	2150.819580
1.960368	2242.840820
1.960476	2352.148926
1.960583	2204.602539
1.960690	2256.178467
1.960798	2201.004883
1.960905	2292.943359
1.961013	2289.688965
1.961120	2292.201904
1.961228	2248.588867
1.961336	2176.166748
1.961443	2273.798340
1.961551	2201.395508
1.961658	2290.348633
1.961766	2266.934326
1.961874	2255.047607
1.961981	2277.718994
1.962089	2173.703857
1.962197	2320.161377
1.962304	2244.954346
1.962412	2224.447266
1.962520	2275.877441
1.962627	2266.878906
1.962735	2234.873047
1.962843	2257.518066
1.962951	2334.787354
1.963058	2222.289063
1.963166	2204.682861
1.963274	2273.301270
1.963382	2235.577881
1.963490	2194.993896
1.963598	2200.383789
1.963706	2300.551270
1.963814	2225.516602
1.963922	2230.898926
1.964030	2253.503418
1.964138	2212.955566
1.964246	2241.295166
1.964354	2206.500732
1.964462	2134.422363
1.964570	2331.995605
1.964678	2288.599365
1.964786	2314.036133
1.964894	2284.991699
1.965002	2290.354980
1.965110	2289.984375
1.965219	2169.258545
1.965327	2243.401123
1.965435	2248.767334
1.965543	2191.119141
1.965651	2236.584473
1.965760	2224.769287
1.965868	2278.802734
1.965976	2301.332764
1.966084	2177.898926
1.966193	2183.269287
1.966301	2314.520264
1.966410	2311.285156
1.966518	2176.489258
1.966626	2207.592285
1.966735	2107.166016
1.966843	2224.029541
1.966952	2255.109619
1.967060	2163.297363
1.967169	2274.380371
1.967277	2342.575439
1.967386	2179.385010
1.967494	2353.240479
1.967603	2290.040527
1.967711	2192.601318
1.967820	2243.627197
1.967928	2214.723633
1.968037	2222.925781
1.968146	2245.390869
1.968254	2259.290527
1.968363	2179.063721
1.968472	2221.486572
1.968580	2184.060547
1.968689	2200.811768
1.968798	2251.761230
1.968907	2268.495850
1.969015	2179.796875
1.969124	2196.537598
1.969233	2190.485107
1.969342	2204.370361
1.969451	2252.422119
1.969560	2206.503662
1.969669	2234.612793
1.969777	2291.174316
1.969886	2202.586182
1.969995	2222.146240
1.970104	2187.648682
1.970213	2261.247314
1.970322	2167.033203
1.970431	2192.272949
1.970540	2206.132568
1.970649	2237.042725
1.970758	2202.575928
1.970868	2193.694580
1.970977	2238.797119
1.971086	2366.263672
1.971195	2303.396240
1.971304	2206.472168
1.971413	2336.721436
1.971522	2231.306885
1.971632	2162.824951
1.971741	2244.773438
1.971850	2250.084717
1.971959	2241.209229
1.972068	2198.298340
1.972178	2212.122559
1.972287	2118.189697
1.972396	2115.011230
1.972506	2236.559814
1.972615	2239.031494
1.972724	2250.003906
1.972834	2317.638428
1.972943	2237.943604
1.973053	2186.598145
1.973162	2214.562988
1.973272	2225.530029
1.973381	2148.732178
1.973491	2176.689697
1.973600	2230.108643
1.973710	2238.236084
1.973819	2107.731689
1.973929	2101.732666
1.974039	2262.602539
1.974148	2086.912598
1.974258	2295.797363
1.974367	2236.060791
1.974477	2252.656982
1.974587	2226.858154
1.974697	2144.557617
1.974806	2226.136475
1.974916	2112.792236
1.975026	2205.645996
1.975135	2216.583252
1.975245	2168.229248
1.975355	2227.155762
1.975465	2218.327881
1.975575	2155.887939
1.975685	2189.395020
1.975794	2273.667969
1.975904	2191.505859
1.976014	2131.930176
1.976124	2190.795410
1.976234	2184.802002
1.976344	2238.002197
1.976454	2141.821045
1.976564	2180.922119
1.976674	2259.452148
1.976784	2194.299072
1.976894	2148.881592
1.977004	2165.428711
1.977114	2218.571045
1.977224	2125.316650
1.977335	2217.851563
1.977445	2096.486816
1.977555	2231.200684
1.977665	2177.388916
1.977775	2303.607666
1.977885	2097.939697
1.977996	2108.846680
1.978106	2249.071777
1.978216	2130.649902
1.978327	2186.512939
1.978437	2020.370117
1.978547	2107.137451
1.978658	2140.504639
1.978768	2182.286621
1.978878	2063.990234
1.978989	2159.117188
1.979099	2175.610596
1.979210	2124.735596
1.979320	2200.161865
1.979430	2084.764160
1.979541	2087.231445
1.979651	2134.577393
1.979762	2153.862793
1.979872	2209.594482
1.979983	2234.468506
1.980094	2113.570801
1.980204	2191.703369
1.980315	2135.303223
1.980425	2205.001221
1.980536	2129.007813
1.980647	2137.065186
1.980757	2052.705811
1.980868	2158.771484
1.980979	2099.631592
1.981090	2096.491943
1.981200	2157.720947
1.981311	2176.958008
1.981422	2140.234863
1.981533	2131.495850
1.981644	2189.882568
1.981754	2144.785889
1.981865	2194.763916
1.981976	2113.340332
1.982087	2096.227783
1.982198	2151.777832
1.982309	2168.193115
1.982420	2173.428467
1.982531	2086.488037
1.982642	2206.235840
1.982753	2183.539795
1.982864	2093.847900
1.982975	2121.421631
1.983086	2101.541016
1.983197	2154.218262
1.983308	2237.568359
1.983419	2200.941406
1.983530	2245.209473
1.983642	2144.454346
1.983753	2091.131104
1.983864	2143.758301
1.983975	2201.943115
1.984086	2179.291260
1.984198	2134.355713
1.984309	2095.006592
1.984420	2144.804688
1.984532	2119.391602
1.984643	2113.478271
1.984754	2171.601563
1.984865	2118.359619
1.984977	2190.378906
1.985088	2109.323730
1.985200	2125.675049
1.985311	2080.820557
1.985422	2152.798828
1.985534	2155.230469
1.985645	2138.197510
1.985757	2071.129395
1.985868	2198.654297
1.985980	2084.352783
1.986091	2145.145264
1.986203	2122.571289
1.986315	2141.671143
1.986426	2041.339355
1.986538	2096.545654
1.986650	2101.758057
1.986761	2148.608398
1.986873	2023.360718
1.986985	2139.585449
1.987096	2033.802124
1.987208	2052.891113
1.987320	2141.316895
1.987432	2107.689941
1.987543	2104.574707
1.987655	2101.460693
1.987767	2076.172119
1.987879	2142.350342
1.987991	2119.834229
1.988103	2050.225586
1.988214	2085.904053
1.988326	2041.250488
1.988438	2162.764893
1.988550	2090.425537
1.988662	2120.537598
1.988774	2181.086426
1.988886	2164.127441
1.988998	2080.766602
1.989110	2113.626953
1.989222	2113.283691
1.989334	2118.471680
1.989447	2098.771240
1.989559	2106.724365
1.989671	2031.746704
1.989783	2045.235718
1.989895	2127.804932
1.990007	2160.614502
1.990119	2002.801758
1.990232	1980.380127
1.990344	2137.468750
1.990456	2092.943359
1.990568	2018.064697
1.990681	2031.537964
1.990793	1992.570801
1.990905	2058.471191
1.991018	2022.271118
1.991130	2088.145264
1.991242	2043.677979
1.991355	2095.739258
1.991467	2178.111816
1.991580	1995.818604
1.991692	2001.006714
1.991805	2110.911865
1.991917	2080.260498
1.992030	2082.677246
1.992142	2082.338623
1.992255	2021.412964
1.992367	2070.647949
1.992480	2125.372803
1.992592	2160.811523
1.992705	2091.655762
1.992818	1992.253418
1.992930	2022.193726
1.993043	2131.898438
1.993156	2068.292969
1.993269	2109.206055
1.993381	2119.861084
1.993494	2067.284424
1.993607	2097.183105
1.993720	2039.130859
1.993832	2058.033447
1.993945	1991.764526
1.994058	2016.161987
1.994171	2007.595093
1.994284	2053.949463
1.994397	1971.251221
1.994510	2023.086304
1.994623	2003.545288
1.994736	2126.705566
1.994848	2024.843262
1.994962	2040.973511
1.995075	1977.557251
1.995188	2064.990967
1.995301	1996.107544
1.995414	2004.007324
1.995527	1992.717407
1.995640	1995.133911
1.995753	2027.690918
1.995866	1975.307251
1.995979	1994.160645
1.996092	1966.448486
1.996206	2018.157104
1.996319	1993.187866
1.996432	1995.601074
1.996545	1967.906494
1.996659	1967.586426
1.996772	2008.308105
1.996885	2021.659790
1.996999	1980.302490
1.997112	2026.471680
1.997225	1976.923950
1.997339	2028.546265
1.997452	2020.015991
1.997565	2019.687378
1.997679	1978.370483
1.997792	1983.512817
1.997906	1972.263550
1.998019	1950.092896
1.998133	2018.045044
1.998246	1954.919067
1.998360	2058.336670
1.998473	1943.365112
1.998587	1953.964966
1.998700	1926.361450
1.998814	1950.601074
1.998928	1958.466675
1.999041	1928.148560
1.999155	1968.736450
1.999269	2028.395508
1.999382	1978.999390
1.999496	1932.344604
1.999610	1942.930176
1.999724	1939.889526
1.999838	2037.642090
1.999951	2050.928955
2.000065	2017.916260
2.000179	1881.448364
2.000293	1973.701904
2.000407	1984.268311
2.000521	1937.680542
2.000635	1986.343384
2.000748	2021.387573
2.000862	1985.696899
2.000976	1936.419189
2.001091	1955.138672
2.001204	1924.913574
2.001318	1905.571777
2.001432	1929.722778
2.001547	1918.538696
2.001661	1945.396729
2.001775	1923.347290
2.001889	1944.763428
2.002003	1939.015381
2.002117	1930.553833
2.002231	1979.106323
2.002346	1978.784180
2.002460	1992.031616
2.002574	1937.437378
2.002688	1920.843506
2.002802	2004.621826
2.002917	1979.885864
2.003031	1876.517700
2.003145	1906.036255
2.003260	1921.990967
2.003374	1913.546753
2.003489	1932.204834
2.003603	1977.952148
2.003717	1920.739258
2.003832	1893.340088
2.003946	1871.366089
2.004061	1833.152710
2.004175	1857.219971
2.004290	1873.158691
2.004404	1926.982422
2.004519	1902.314575
2.004633	1942.588013
2.004748	1907.105103
2.004862	1904.089722
2.004977	1884.849976
2.005092	1957.545288
2.005206	1838.278931
2.005321	1889.334839
2.005436	1959.291260
2.005550	1864.401001
2.005665	1926.233887
2.005780	1934.023438
2.005895	1920.204834
2.006010	1914.491455
2.006124	1978.975464
2.006239	1824.787720
2.006354	1924.351563
2.006469	1926.736572
2.006584	1937.214844
2.006699	1912.620483
2.006814	1790.935181
2.006928	1885.029663
2.007043	1868.544678
2.007159	1951.812256
2.007273	1946.103271
2.007388	1889.191284
2.007504	1934.690796
2.007618	1926.293091
2.007734	1818.232056
2.007849	1866.414063
2.007964	1963.050659
2.008079	1911.575806
2.008194	1892.420776
2.008309	1919.027222
2.008425	1948.315796
2.008540	1886.114380
2.008655	1904.638062
2.008770	1882.809692
2.008885	1860.988525
2.009001	1874.129395
2.009116	1895.331177
2.009231	1999.853149
2.009346	1926.963623
2.009462	1786.920410
2.009577	1843.048950
2.009693	1901.845337
2.009808	1952.565186
2.009923	1850.203613
2.010039	1884.805786
2.010154	1871.076050
2.010270	1894.927246
2.010386	1851.680786
2.010501	1854.062012
2.010617	1840.346069
2.010732	1799.811768
2.010848	1866.564331
2.010963	1780.454834
2.011079	1766.759644
2.011194	1753.068848
2.011310	1876.067383
2.011426	1790.012329
2.011541	1843.304810
2.011657	1757.283081
2.011773	1799.849976
2.011889	1818.301880
2.012004	1834.070068
2.012120	1881.957642
2.012236	1895.033569
2.012352	1819.791870
2.012468	1800.764893
2.012583	1856.652344
2.012699	1832.275757
2.012815	1864.069824
2.012931	1748.784546
2.013047	1743.152100
2.013163	1790.983643
2.013279	1873.544434
2.013395	1849.188599
2.013511	1824.840698
2.013627	1845.913818
2.013743	1794.864990
2.013859	1845.311523
2.013975	1748.888306
2.014091	1810.004272
2.014208	1833.731567
2.014324	1764.044800
2.014440	1694.380737
2.014556	1728.786621
2.014672	1784.520874
2.014788	1792.230591
2.014905	1829.270142
2.015021	1756.985840
2.015137	1756.699097
2.015254	1873.684204
2.015370	1820.081787
2.015486	1750.510254
2.015603	1768.872314
2.015719	1765.920044
2.015835	1824.219849
2.015952	1789.307495
2.016068	1733.108765
2.016185	1706.207886
2.016301	1838.997192
2.016418	1822.731445
2.016534	1697.390991
2.016651	1731.694580
2.016767	1750.029175
2.016884	1837.496460
2.017000	1821.244019
2.017117	1775.755249
2.017234	1738.255005
2.017350	1740.628540
2.017467	1777.542603
2.017583	1793.191772
2.017700	1779.618286
2.017817	1813.851929
2.017934	1757.794922
2.018050	1707.065796
2.018167	1714.750244
2.018284	1783.473633
2.018401	1804.410767
2.018517	1708.604004
2.018634	1790.557983
2.018751	1848.614868
2.018868	1721.026001
2.018985	1720.744873
2.019102	1765.529907
2.019219	1701.629272
2.019336	1632.449219
2.019453	1714.321655
2.019570	1695.497070
2.019687	1753.493286
2.019804	1755.855225
2.019921	1713.201660
2.020038	1800.288818
2.020155	1725.877197
2.020272	1709.715576
2.020390	1749.129028
2.020507	1687.990967
2.020624	1782.946655
2.020741	1740.337158
2.020858	1761.208496
2.020976	1723.904297
2.021093	1744.771362
2.021210	1725.984131
2.021327	1670.204834
2.021445	1717.493164
2.021562	1711.928833
2.021679	1690.517578
2.021797	1692.882324
2.021914	1755.979370
2.022031	1792.654297
2.022149	1655.096558
2.022266	1694.415161
2.022384	1744.276245
2.022501	1741.352783
2.022619	1746.344116
2.022736	1764.521484
2.022854	1766.870239
2.022971	1650.567017
2.023089	1766.292603
2.023206	1681.657349
2.023324	1649.757690
2.023442	1733.806885
2.023559	1712.447266
2.023677	1701.630859
2.023795	1685.550537
2.023912	1735.306641
2.024030	1650.772949
2.024148	1700.518311
2.024266	1729.191650
2.024384	1618.385132
2.024501	1689.159912
2.024619	1702.036987
2.024737	1733.321411
2.024855	1635.735352
2.024973	1630.209229
2.025091	1679.892456
2.025208	1695.388794
2.025326	1605.756836
2.025445	1618.632446
2.025563	1707.693237
2.025681	1678.519165
2.025798	1628.343750
2.025917	1649.084961
2.026035	1588.428589
2.026153	1661.670898
2.026271	1569.536499
2.026389	1571.904053
2.026507	1608.379883
2.026625	1615.986816
2.026743	1683.918579
2.026861	1623.325684
2.026980	1615.193848
2.027098	1656.875854
2.027216	1559.619995
2.027334	1669.437622
2.027453	1608.896362
2.027571	1590.293701
2.027689	1631.945435
2.027808	1741.679199
2.027926	1654.979126
2.028044	1683.508667
2.028163	1649.202026
2.028281	1627.993286
2.028400	1661.746948
2.028518	1582.980103
2.028637	1663.819214
2.028755	1616.465332
2.028874	1678.965942
2.028992	1597.632813
2.029111	1631.357910
2.029229	1659.844116
2.029348	1701.388428
2.029467	1536.486450
2.029585	1531.009644
2.029704	1622.186646
2.029823	1650.650757
2.029941	1553.760254
2.030060	1584.837036
2.030179	1581.967163
2.030298	1545.166992
2.030416	1607.545654
2.030535	1578.581055
2.030654	1622.672119
2.030773	1671.965576
2.030892	1635.180542
2.031011	1546.257324
2.031129	1561.646606
2.031248	1597.884277
2.031367	1628.897461
2.031486	1599.966797
2.031605	1594.494019
2.031724	1602.047729
2.031843	1484.581665
2.031962	1531.212402
2.032081	1564.809326
2.032200	1561.949829
2.032319	1538.268677
2.032439	1561.438232
2.032557	1503.939209
2.032677	1514.098999
2.032796	1565.873413
2.032915	1539.609985
2.033034	1523.756226
2.033154	1591.102417
2.033273	1533.654663
2.033392	1491.819580
2.033511	1525.356567
2.033631	1480.938354
2.033750	1537.845337
2.033869	1477.855835
2.033989	1529.550903
2.034108	1466.985962
2.034227	1523.857788
2.034347	1575.519775
2.034466	1575.261597
2.034586	1507.540405
2.034705	1481.350342
2.034825	1488.889282
2.034944	1514.579834
2.035064	1558.413208
2.035183	1633.343506
2.035303	1493.097900
2.035423	1516.179077
2.035542	1585.896606
2.035662	1471.636597
2.035781	1481.757446
2.035901	1473.744385
2.036021	1437.247925
2.036140	1527.634766
2.036260	1540.328247
2.036380	1485.720215
2.036500	1534.647461
2.036619	1487.820679
2.036739	1459.118774
2.036859	1523.546143
2.036979	1520.710205
2.037099	1499.774292
2.037219	1494.357666
2.037339	1507.037476
2.037459	1506.790405
2.037578	1457.445068
2.037699	1483.043091
2.037818	1441.467529
2.037939	1469.642578
2.038059	1469.401489
2.038178	1507.890625
2.038299	1492.153931
2.038419	1515.139648
2.038539	1471.018677
2.038659	1499.160889
2.038779	1429.258057
2.038899	1462.556641
2.039020	1547.425171
2.039140	1446.605225
2.039260	1505.666504
2.039380	1448.708496
2.039500	1469.089722
2.039621	1466.271729
2.039741	1530.443848
2.039861	1519.888550
2.039982	1444.945068
2.040102	1462.734619
2.040222	1470.219116
2.040343	1513.742676
2.040463	1446.571045
2.040584	1482.363403
2.040704	1533.582642
2.040825	1453.577271
2.040945	1443.049683
2.041066	1496.821899
2.041186	1455.433350
2.041307	1406.345215
2.041427	1483.232300
2.041548	1477.848511
2.041668	1449.338745
2.041789	1482.502197
2.041910	1448.863037
2.042031	1420.371948
2.042151	1427.843018
2.042272	1437.879272
2.042393	1376.030029
2.042513	1424.573364
2.042634	1429.472290
2.042755	1506.216309
2.042876	1480.313721
2.042997	1395.421997
2.043118	1415.710449
2.043238	1482.149170
2.043359	1471.650391
2.043480	1420.140259
2.043601	1435.285156
2.043722	1450.425049
2.043843	1419.440918
2.043964	1437.140015
2.044085	1424.097412
2.044206	1436.668213
2.044327	1382.662109
2.044448	1423.396118
2.044569	1428.281616
2.044690	1374.303345
2.044812	1450.841797
2.044933	1358.501709
2.045054	1435.017578
2.045175	1386.188599
2.045296	1431.989136
2.045418	1511.011719
2.045539	1408.512207
2.045660	1436.395386
2.045781	1321.164551
2.045903	1366.937988
2.046024	1348.831177
2.046145	1369.043091
2.046267	1356.049438
2.046388	1399.233521
2.046510	1429.638794
2.046631	1408.983887
2.046753	1360.262695
2.046874	1413.624268
2.046995	1367.469604
2.047117	1387.651489
2.047239	1402.725952
2.047360	1410.145508
2.047482	1415.012939
2.047603	1368.895630
2.047725	1394.158081
2.047847	1381.187378
2.047968	1454.849487
2.048090	1357.806152
2.048212	1316.830078
2.048333	1331.893555
2.048455	1438.615967
2.048577	1415.467285
2.048699	1399.962402
2.048820	1402.277222
2.048942	1368.967651
2.049064	1399.272217
2.049186	1442.285278
2.049308	1419.158569
2.049430	1360.439087
2.049551	1347.503174
2.049674	1347.281738
2.049795	1278.436401
2.049917	1384.956787
2.050040	1384.729126
2.050161	1425.147339
2.050283	1338.554688
2.050405	1335.795044
2.050528	1330.497192
2.050650	1322.662354
2.050772	1309.753418
2.050894	1362.833252
2.051016	1342.309570
2.051138	1347.162964
2.051260	1423.039795
2.051383	1339.111328
2.051505	1399.749756
2.051627	1379.236694
2.051749	1391.684570
2.051872	1406.662842
2.051994	1302.532959
2.052116	1241.510010
2.052239	1413.568604
2.052361	1268.963135
2.052484	1301.676147
2.052606	1331.846313
2.052728	1339.222046
2.052851	1301.033813
2.052973	1318.535278
2.053096	1338.561279
2.053218	1323.161377
2.053341	1333.061768
2.053463	1368.250000
2.053586	1276.991821
2.053709	1329.875610
2.053831	1337.240356
2.053954	1314.273315
2.054076	1293.840820
2.054199	1263.308472
2.054322	1270.679199
2.054445	1303.305298
2.054567	1308.141479
2.054690	1290.251587
2.054813	1279.941040
2.054936	1337.785278
2.055058	1297.185791
2.055181	1261.646118
2.055304	1291.713013
2.055427	1304.112671
2.055550	1339.206665
2.055673	1222.991211
2.055796	1245.480835
2.055919	1235.192627
2.056042	1262.713501
2.056165	1315.425049
2.056288	1224.504395
2.056411	1317.510986
2.056534	1236.694824
2.056657	1312.040649
2.056780	1246.359253
2.056903	1331.748413
2.057026	1253.500000
2.057149	1280.976807
2.057273	1250.571045
2.057396	1298.165771
2.057519	1255.189941
2.057642	1217.258301
2.057765	1287.466187
2.057889	1319.938354
2.058012	1279.500854
2.058136	1281.803467
2.058259	1299.182861
2.058382	1286.406250
2.058506	1268.609741
2.058629	1308.587646
2.058753	1280.748169
2.058876	1227.809204
2.058999	1210.033813
2.059123	1199.794312
2.059246	1340.135254
2.059370	1352.460449
2.059494	1199.201416
2.059617	1296.830566
2.059741	1258.997437
2.059864	1208.639038
2.059988	1286.161133
2.060112	1235.814697
2.060235	1303.281372
2.060359	1205.336670
2.060483	1335.423218
2.060606	1327.687988
2.060730	1294.908569
2.060854	1239.601807
2.060978	1301.993286
2.061101	1259.220581
2.061225	1259.013062
2.061349	1241.287354
2.061473	1231.073975
2.061597	1308.425903
2.061721	1200.651855
2.061845	1192.951172
2.061969	1175.250732
2.062093	1230.059692
2.062217	1259.853394
2.062341	1224.655518
2.062465	1204.462524
2.062589	1234.245605
2.062713	1261.520874
2.062837	1253.819824
2.062961	1216.154541
2.063085	1218.450928
2.063210	1230.732056
2.063334	1200.577026
2.063458	1255.282104
2.063582	1237.608765
2.063706	1237.404663
2.063831	1214.751465
2.063955	1169.660156
2.064079	1279.182617
2.064204	1226.616089
2.064328	1139.168945
2.064452	1291.011353
2.064577	1191.122803
2.064701	1208.366699
2.064825	1230.586914
2.064950	1240.346558
2.065074	1207.768799
2.065199	1167.732178
2.065324	1272.095337
2.065448	1222.105225
2.065573	1187.063110
2.065697	1226.678345
2.065822	1179.208130
2.065946	1149.165161
2.066071	1126.592896
2.066195	1228.355469
2.066320	1235.611206
2.066445	1170.778320
2.066570	1173.070435
2.066694	1143.057983
2.066819	1204.981812
2.066944	1271.853394
2.067069	1204.584106
2.067194	1214.318359
2.067318	1199.220825
2.067443	1226.329834
2.067568	1141.738037
2.067693	1178.774048
2.067818	1151.286011
2.067943	1178.384888
2.068068	1136.023560
2.068193	1155.675903
2.068318	1148.046387
2.068443	1155.294434
2.068568	1182.369995
2.068693	1107.824219
2.068818	1157.200195
2.068943	1194.172119
2.069068	1179.112183
2.069193	1131.859863
2.069319	1181.199219
2.069444	1188.431763
2.069569	1131.299316
2.069694	1205.364868
2.069819	1158.147095
2.069945	1148.058716
2.070070	1083.548828
2.070195	1120.471558
2.070321	1120.286499
2.070446	1154.718262
2.070571	1174.305298
2.070697	1208.716797
2.070822	1166.503174
2.070948	1092.180664
2.071073	1148.823730
2.071199	1141.223389
2.071324	1113.867310
2.071450	1076.642822
2.071575	1133.250977
2.071701	1103.441162
2.071826	1073.641235
2.071952	1174.640869
2.072078	1189.250732
2.072203	1198.921875
2.072329	1119.795410
2.072454	1119.610352
2.072580	1129.288086
2.072706	1198.129517
2.072832	1153.563721
2.072958	1207.591431
2.073083	1153.182373
2.073209	1086.473022
2.073335	1130.631958
2.073461	1071.336914
2.073587	1051.460327
2.073713	1137.457520
2.073838	1196.348389
2.073964	1110.008057
2.074090	1087.677368
2.074217	1119.482788
2.074342	1129.137695
2.074469	1136.329712
2.074594	1074.662354
2.074721	1131.036499
2.074847	1098.890625
2.074973	1103.624878
2.075099	1120.645264
2.075225	1086.059937
2.075351	1036.745483
2.075477	1080.788086
2.075603	1092.888916
2.075730	1085.341675
2.075856	1124.444092
2.075982	1107.075073
2.076109	1141.252319
2.076235	1087.077759
2.076361	1094.258423
2.076488	1057.281006
2.076614	1098.801758
2.076741	1118.238159
2.076867	1086.178955
2.076993	1078.644775
2.077120	1169.155640
2.077246	1073.386597
2.077373	1149.166748
2.077499	1114.678833
2.077626	1126.741577
2.077753	1092.268677
2.077879	1114.125610
2.078006	1145.768188
2.078132	1103.965698
2.078259	1133.151978
2.078386	1145.199463
2.078512	985.980774
2.078639	1032.295410
2.078766	1127.510498
2.078892	1100.424561
2.079019	1088.017578
2.079146	1114.727783
2.079273	1099.878296
2.079400	1058.152100
2.079527	1094.627441
2.079654	1045.587036
2.079780	1135.788452
2.079907	1072.104492
2.080034	1057.276611
2.080161	1071.749634
2.080288	1039.839966
2.080415	1071.394775
2.080542	1095.618652
2.080669	1083.238647
2.080796	1078.180664
2.080923	1058.490723
2.081050	1063.192505
2.081177	1004.501770
2.081305	1101.843750
2.081432	1040.728638
2.081559	1042.993164
2.081686	1035.510986
2.081814	1042.647705
2.081941	1032.732300
2.082068	1061.784668
2.082195	1017.780884
2.082323	1027.350220
2.082450	1080.729736
2.082577	946.698730
2.082705	1046.305908
2.082832	1068.028442
2.082960	1043.526855
2.083087	980.120361
2.083215	1011.569519
2.083342	1035.714478
2.083470	1103.606689
2.083597	1011.066833
2.083724	1083.800659
2.083852	1044.746826
2.083980	1061.578369
2.084107	1034.685181
2.084235	1005.372498
2.084363	1024.630127
2.084490	1002.611694
2.084618	1036.426758
2.084746	1036.254883
2.084874	1023.951050
2.085001	1060.171631
2.085129	1033.314087
2.085257	1052.544556
2.085385	972.351196
2.085513	989.160889
2.085641	1025.357056
2.085768	1068.812134
2.085896	1032.286743
2.086024	1092.685791
2.086152	1002.875671
2.086280	1029.351440
2.086408	1004.964722
2.086536	985.428467
2.086664	999.789856
2.086792	1009.305664
2.086920	987.358337
2.087049	1001.712158
2.087177	996.707642
2.087305	1052.174561
2.087433	984.285156
2.087561	996.211853
2.087689	942.859680
2.087818	1068.397095
2.087946	1012.633728
2.088074	1019.714905
2.088202	973.642029
2.088331	956.571411
2.088459	1002.301270
2.088587	997.305420
2.088716	1006.797485
2.088844	968.006714
2.088973	987.154785
2.089101	955.619629
2.089230	982.001648
2.089358	952.890198
2.089487	991.323730
2.089615	998.393982
2.089744	983.761230
2.089872	995.651855
2.090001	1050.925415
2.090129	980.861572
2.090258	980.698792
2.090387	958.853394
2.090515	965.920593
2.090644	1021.153015
2.090773	951.152100
2.090901	955.809326
2.091030	984.536865
2.091159	955.492065
2.091288	1010.680237
2.091417	1022.542358
2.091546	914.121338
2.091674	986.125122
2.091803	1038.866577
2.091932	966.562622
2.092061	978.422058
2.092190	1043.156372
2.092319	963.678040
2.092448	956.309631
2.092577	956.150818
2.092706	958.394043
2.092835	1001.463501
2.092964	962.878113
2.093093	933.908691
2.093223	936.153992
2.093352	962.398438
2.093481	971.836975
2.093610	971.675537
2.093739	940.329773
2.093868	961.759155
2.093998	940.017395
2.094127	937.463623
2.094256	930.116272
2.094386	915.580872
2.094515	960.960571
2.094645	984.761047
2.094774	977.410583
2.094903	960.481628
2.095033	1015.402893
2.095162	933.823853
2.095292	892.970337
2.095421	967.024292
2.095551	928.571960
2.095680	947.560242
2.095810	906.731445
2.095939	968.773621
2.096069	913.604980
2.096198	923.018066
2.096328	968.290649
2.096458	965.739258
2.096588	934.508118
2.096717	955.859619
2.096847	912.694214
2.096977	914.931335
2.097106	881.340820
2.097236	938.507751
2.097366	971.778992
2.097496	945.357483
2.097626	887.915466
2.097756	911.632568
2.097886	985.449280
2.098016	920.872131
2.098145	880.169189
2.098275	930.105408
2.098405	929.950745
2.098536	894.034668
2.098665	908.188171
2.098796	886.587402
2.098926	910.268982
2.099056	895.822571
2.099186	943.315796
2.099316	926.486877
2.099446	912.044861
2.099576	833.322693
2.099707	897.458252
