#Wave		#Intensity
1.699584	306.063477
1.699649	358.668121
1.699714	329.917572
1.699779	348.982849
1.699844	320.243896
1.699908	391.872498
1.699973	324.911224
1.700038	334.409576
1.700103	353.457550
1.700168	315.191406
1.700233	386.758911
1.700298	281.664581
1.700363	315.027924
1.700428	310.201111
1.700493	400.806000
1.700558	343.488617
1.700623	395.897583
1.700688	357.676941
1.700753	386.224335
1.700818	414.761841
1.700883	352.724976
1.700948	343.132568
1.701013	400.252167
1.701078	362.070343
1.701143	319.138458
1.701208	347.657928
1.701273	361.882721
1.701338	428.471313
1.701403	342.717865
1.701468	337.899536
1.701534	356.874481
1.701599	394.872894
1.701664	309.184418
1.701729	375.713104
1.701794	342.362946
1.701859	351.812286
1.701925	342.244781
1.701990	403.969238
1.702055	356.381927
1.702120	327.814789
1.702186	408.510254
1.702251	337.200256
1.702316	327.645111
1.702381	365.569885
1.702447	431.962616
1.702512	393.919922
1.702577	441.304016
1.702643	408.017181
1.702708	398.459686
1.702773	393.648224
1.702839	398.322266
1.702904	398.253601
1.702969	327.080475
1.703035	322.284607
1.703100	412.263641
1.703166	416.930420
1.703231	341.066101
1.703297	336.271088
1.703362	326.742371
1.703427	421.377655
1.703493	426.038818
1.703558	407.033600
1.703624	383.302826
1.703689	411.624695
1.703755	473.050323
1.703820	368.915710
1.703886	420.869751
1.703952	340.420258
1.704017	420.724823
1.704083	392.293762
1.704148	453.659241
1.704214	354.360260
1.704280	472.399017
1.704345	420.362732
1.704411	467.514008
1.704476	462.711975
1.704542	396.542023
1.704608	377.594055
1.704674	344.495270
1.704739	405.773926
1.704805	410.421600
1.704871	410.350983
1.704936	485.734222
1.705002	386.634521
1.705068	428.996216
1.705134	400.641815
1.705199	419.423401
1.705265	428.774872
1.705331	423.990143
1.705397	400.366272
1.705463	452.100616
1.705528	461.440033
1.705594	428.406372
1.705660	409.504913
1.705726	484.732819
1.705792	399.953461
1.705858	428.111877
1.705924	442.149445
1.705989	390.341461
1.706056	437.295410
1.706121	418.415100
1.706187	404.241730
1.706253	460.568420
1.706319	455.790436
1.706385	366.448914
1.706451	427.450317
1.706517	417.984009
1.706583	427.303497
1.706649	399.061096
1.706715	431.850769
1.706781	370.764709
1.706847	375.393463
1.706913	365.945801
1.706980	417.481842
1.707046	393.960175
1.707112	440.784515
1.707178	356.317810
1.707244	421.882874
1.707310	417.123688
1.707376	440.481995
1.707443	468.517456
1.707509	388.802765
1.707575	407.470337
1.707641	398.034882
1.707707	435.422302
1.707773	468.115692
1.707840	439.953278
1.707906	416.480072
1.707972	495.947357
1.708038	453.760803
1.708105	416.265839
1.708171	416.194458
1.708237	462.878510
1.708303	434.750702
1.708370	434.676178
1.708436	481.333038
1.708503	401.820831
1.708569	448.467316
1.708635	448.390442
1.708702	513.692688
1.708768	480.920715
1.708834	480.838318
1.708901	434.080597
1.708967	452.673157
1.709034	471.259338
1.709100	489.839142
1.709167	452.440552
1.709233	424.381836
1.709299	414.983673
1.709366	461.532013
1.709432	554.675781
1.709499	484.675659
1.709566	475.273590
1.709632	470.533478
1.709699	470.452911
1.709765	475.029510
1.709832	498.229980
1.709898	442.278015
1.709965	502.714203
1.710032	386.279053
1.710098	432.744629
1.710165	502.456146
1.710231	469.809143
1.710298	497.633453
1.710365	464.998413
1.710431	446.322113
1.710498	515.971680
1.710565	534.473816
1.710631	473.973938
1.710698	408.848755
1.710765	404.133606
1.710832	459.797546
1.710898	464.362549
1.710965	538.568420
1.711032	515.266174
1.711099	426.994446
1.711165	482.606842
1.711232	431.488129
1.711299	487.080750
1.711366	486.997498
1.711433	426.629639
1.711500	454.375641
1.711566	477.476471
1.711633	519.109009
1.711700	505.117950
1.711767	537.464905
1.711834	481.782745
1.711901	449.278290
1.711968	467.725342
1.712035	564.878662
1.712102	462.936218
1.712169	583.200012
1.712236	546.078186
1.712303	467.326080
1.712370	508.882080
1.712437	536.547668
1.712504	434.714386
1.712571	508.621460
1.712638	545.518982
1.712705	476.092072
1.712772	392.824463
1.712839	586.825745
1.712906	434.269348
1.712973	443.433441
1.713040	577.288757
1.713107	489.457336
1.713175	521.690979
1.713242	480.058441
1.713309	443.055267
1.713376	526.038391
1.713443	475.199219
1.713511	507.407776
1.713578	553.441345
1.713645	465.733673
1.713712	507.148193
1.713779	460.965210
1.713847	603.761475
1.713914	465.416107
1.713981	446.907562
1.714048	474.470428
1.714116	529.658264
1.714183	492.728455
1.714250	529.477722
1.714318	501.767242
1.714385	561.515320
1.714453	607.437622
1.714520	570.526001
1.714587	561.228333
1.714655	505.939331
1.714722	556.438416
1.714789	482.777557
1.714857	464.306915
1.714924	496.402039
1.714992	496.317474
1.715059	565.154175
1.715127	578.839844
1.715194	496.063934
1.715262	509.756683
1.715329	541.811218
1.715397	486.628906
1.715464	486.546051
1.715532	468.106140
1.715599	536.853882
1.715667	513.823914
1.715734	532.084167
1.715802	531.993591
1.715870	527.317688
1.715937	490.551239
1.716005	577.560181
1.716073	508.716431
1.716140	568.199158
1.716208	462.728638
1.716275	558.844421
1.716343	586.228821
1.716411	654.816162
1.716478	553.980957
1.716546	544.731567
1.716614	540.062134
1.716682	549.122314
1.716749	530.727966
1.716817	562.658997
1.716885	530.547485
1.716953	571.613464
1.717021	566.944153
1.717088	516.562927
1.717156	612.457214
1.717224	566.655090
1.717292	593.972900
1.717360	621.281433
1.717427	456.746948
1.717495	470.369415
1.717563	552.476013
1.717631	598.033569
1.717699	556.852661
1.717767	602.393921
1.717835	556.663452
1.717903	629.561523
1.717971	597.525757
1.718039	592.863770
1.718107	588.203369
1.718175	569.867676
1.718243	556.096436
1.718311	560.559387
1.718379	647.039978
1.718447	555.813171
1.718515	528.388367
1.718583	564.733093
1.718651	578.297791
1.718719	614.621643
1.718787	587.205444
1.718855	614.413025
1.718923	605.207886
1.718992	582.356812
1.719060	518.573547
1.719128	550.322388
1.719196	595.702454
1.719264	586.508240
1.719332	563.679749
1.719401	577.219177
1.719469	486.236023
1.719537	558.849426
1.719605	676.865356
1.719674	608.621338
1.719742	617.600464
1.719810	603.874512
1.719878	653.708130
1.719947	553.742126
1.720015	553.648254
1.720083	521.793091
1.720152	576.143311
1.720220	562.438293
1.720288	544.202881
1.720357	607.590210
1.720425	639.221619
1.720493	630.047852
1.720562	661.664673
1.720630	629.834290
1.720699	520.997620
1.720767	611.502258
1.720835	593.283142
1.720904	633.935669
1.720972	615.718872
1.721041	574.875366
1.721109	629.087708
1.721178	610.880981
1.721246	628.874634
1.721315	592.580017
1.721383	687.457336
1.721452	596.901306
1.721520	610.363892
1.721589	592.178711
1.721658	668.913086
1.721726	564.864746
1.721795	623.505066
1.721864	609.847351
1.721932	677.493469
1.722001	550.934753
1.722069	614.052856
1.722138	645.549255
1.722207	604.817871
1.722275	609.228333
1.722344	717.414185
1.722413	609.022156
1.722481	654.024231
1.722550	608.816101
1.722619	626.749084
1.722688	581.560791
1.722756	640.059448
1.722825	694.031555
1.722894	675.890381
1.722963	653.250244
1.723032	662.148560
1.723101	747.605957
1.723169	643.913086
1.723238	526.748901
1.723307	720.218567
1.723376	697.593811
1.723445	638.977905
1.723514	683.860718
1.723583	643.260193
1.723651	679.131958
1.723720	589.081116
1.723789	660.918274
1.723858	575.396179
1.723927	669.683960
1.723996	692.039612
1.724065	669.457642
1.724134	642.391052
1.724203	718.637817
1.724272	700.553467
1.724341	655.535461
1.724410	624.000244
1.724479	637.360168
1.724549	695.592529
1.724618	610.223267
1.724687	699.843811
1.724756	645.900574
1.724825	690.638123
1.724894	659.134155
1.724963	694.888062
1.725032	663.393982
1.725101	681.208557
1.725171	694.536194
1.725240	748.180420
1.725309	649.508057
1.725378	627.005371
1.725447	761.235168
1.725517	676.041809
1.725586	675.927734
1.725655	716.093994
1.725724	689.124146
1.725794	612.948547
1.725863	706.784912
1.725932	809.534729
1.726002	634.997437
1.726071	715.369385
1.726140	666.075378
1.726210	697.249878
1.726279	665.850708
1.726348	701.482727
1.726418	737.102722
1.726487	692.313110
1.726557	674.333191
1.726626	683.149536
1.726696	656.248718
1.726765	705.236816
1.726834	727.431824
1.726904	691.613037
1.726973	767.337952
1.727043	713.682434
1.727112	798.297668
1.727182	722.359924
1.727251	717.779907
1.727321	793.436584
1.727390	699.710999
1.727460	699.593079
1.727530	681.654175
1.727599	752.811401
1.727669	659.155701
1.727738	690.215698
1.727808	703.456177
1.727878	730.046753
1.727947	707.669983
1.728017	712.000793
1.728087	702.982361
1.728156	756.246033
1.728226	765.014221
1.728296	836.037537
1.728365	724.740295
1.728435	724.618225
1.728505	724.496216
1.728575	759.926392
1.728644	822.004150
1.728714	817.423279
1.728784	750.659119
1.728854	794.942993
1.728923	785.928650
1.728993	763.598755
1.729063	661.378296
1.729133	727.837463
1.729203	767.650574
1.729273	771.957947
1.729343	691.983765
1.729412	820.483704
1.729482	798.174194
1.729552	744.837280
1.729622	802.338501
1.729692	749.018738
1.729762	793.205933
1.729832	877.253418
1.729902	735.351379
1.729972	801.663940
1.730042	859.097534
1.730112	730.552856
1.730182	814.540161
1.730252	761.289978
1.730322	734.609802
1.730392	809.704773
1.730462	840.535767
1.730532	712.123718
1.730602	760.650269
1.730672	782.630615
1.730743	809.024475
1.730813	777.947388
1.730883	830.849609
1.730953	843.966003
1.731023	808.480774
1.731093	799.510559
1.731164	887.705078
1.731234	794.826233
1.731304	693.148621
1.731374	798.973389
1.731444	794.425720
1.731515	794.292236
1.731585	794.158813
1.731655	824.904236
1.731725	771.839539
1.731796	851.085815
1.731866	771.580322
1.731936	811.125366
1.732007	788.951416
1.732077	806.446167
1.732147	744.625793
1.732218	828.202087
1.732288	784.017090
1.732358	792.693176
1.732429	805.769470
1.732499	889.279297
1.732570	840.712097
1.732640	840.570984
1.732710	827.229431
1.732781	813.892334
1.732851	809.357117
1.732922	787.231567
1.732992	857.454773
1.733063	844.121460
1.733133	848.375610
1.733204	791.098389
1.733274	865.667969
1.733345	808.407043
1.733416	825.842590
1.733486	834.488159
1.733557	878.261230
1.733627	794.693115
1.733698	864.797180
1.733769	825.150269
1.733839	846.953735
1.733910	868.749817
1.733980	872.991028
1.734051	907.933899
1.734122	842.000427
1.734193	876.936707
1.734263	863.637878
1.734334	885.409180
1.734405	915.938110
1.734475	863.203674
1.734546	867.440002
1.734617	792.829956
1.734688	972.258301
1.734758	862.625183
1.734829	805.565674
1.734900	879.845459
1.734971	765.906250
1.735042	971.444031
1.735113	861.902710
1.735183	879.255981
1.735254	844.119263
1.735325	918.317932
1.735396	835.092102
1.735467	843.695190
1.735538	843.553894
1.735609	817.192505
1.735680	935.026306
1.735751	895.552734
1.735822	864.828064
1.735893	912.721252
1.735964	995.529175
1.736035	894.953125
1.736106	986.466064
1.736177	955.751770
1.736248	933.774658
1.736319	868.177795
1.736390	824.412781
1.736461	898.415894
1.736532	933.149597
1.736603	898.115173
1.736674	924.119202
1.736745	897.814636
1.736817	923.809937
1.736888	936.726013
1.736959	1010.623596
1.737030	988.677429
1.737101	927.546570
1.737172	975.284851
1.737244	909.823364
1.737315	905.318665
1.737386	905.167236
1.737457	952.877258
1.737528	952.717896
1.737600	904.713196
1.737671	943.701599
1.737742	913.106873
1.737814	908.606812
1.737885	921.494873
1.737956	973.492188
1.738028	999.400757
1.738099	968.822205
1.738170	929.566345
1.738242	851.236206
1.738313	981.363403
1.738384	881.342773
1.738456	954.990173
1.738527	963.510803
1.738599	963.349792
1.738670	980.543579
1.738742	1006.407471
1.738813	962.866943
1.738885	910.667908
1.738956	1027.582031
1.739028	940.709045
1.739099	988.229614
1.739171	1018.399841
1.739242	931.571899
1.739314	1018.059631
1.739385	1035.215332
1.739457	983.073792
1.739528	1056.519653
1.739600	1073.660278
1.739672	956.610046
1.739743	1043.006836
1.739815	982.253235
1.739887	1021.026672
1.739958	1085.741089
1.740030	1081.234863
1.740101	1024.839600
1.740173	1033.315430
1.740245	1063.402344
1.740317	989.750000
1.740388	894.515503
1.740460	959.175293
1.740532	933.095886
1.740604	1075.472656
1.740675	1049.382568
1.740747	1053.525146
1.740819	1010.179260
1.740891	1053.173584
1.740963	1104.784668
1.741034	1134.804199
1.741106	1022.447632
1.741178	1039.530640
1.741250	1026.419189
1.741322	1026.247925
1.741394	995.898071
1.741466	1099.184570
1.741538	1051.593384
1.741610	1021.254333
1.741681	1046.934204
1.741753	1055.375000
1.741825	1055.198975
1.741897	1098.085205
1.741969	1046.236084
1.742041	1024.537720
1.742113	1007.150635
1.742185	1080.139648
1.742257	1015.420105
1.742329	1036.760376
1.742401	1083.900757
1.742474	1100.921875
1.742546	1087.839111
1.742618	1053.265503
1.742690	1100.371582
1.742762	1108.783325
1.742834	1104.301636
1.742906	1104.117676
1.742978	1142.592773
1.743051	1035.033813
1.743123	1142.212158
1.743195	1129.141846
1.743267	1120.368530
1.743340	1115.890015
1.743412	1064.210083
1.743484	1132.680054
1.743556	1102.463257
1.743629	1059.389282
1.743701	1170.708984
1.743773	1076.186890
1.743845	1118.876465
1.743918	1157.265625
1.743990	1088.505615
1.744062	1126.887085
1.744135	1135.267456
1.744207	1019.428955
1.744280	1126.324219
1.744352	1168.955566
1.744424	1083.137451
1.744497	1207.090576
1.744569	1095.616089
1.744642	1181.014526
1.744714	1133.756348
1.744786	1154.955688
1.744859	1146.209717
1.744931	1175.952271
1.745004	1175.756592
1.745076	1167.011353
1.745149	1243.750122
1.745221	1145.256348
1.745294	1098.066772
1.745367	1140.603271
1.745439	1106.243774
1.745512	1042.002319
1.745584	1157.113281
1.745657	1118.499023
1.745729	1186.606934
1.745802	1126.662354
1.745875	1092.339355
1.745947	1147.618774
1.746020	1228.473022
1.746093	1177.090820
1.746166	1240.856812
1.746238	1151.118896
1.746311	1163.715576
1.746384	1095.330322
1.746456	1205.941406
1.746529	1112.008423
1.746602	1099.043945
1.746675	1171.266846
1.746747	1090.161621
1.746820	1175.135132
1.746893	1191.967896
1.746966	1247.102051
1.747039	1276.683960
1.747112	1276.471802
1.747184	1161.396362
1.747257	1250.526611
1.747330	1212.043701
1.747403	1207.590210
1.747476	1262.657471
1.747549	1262.447632
1.747622	1185.738647
1.747695	1253.529663
1.747768	1142.859131
1.747841	1231.874023
1.747914	1231.669312
1.747987	1150.782593
1.748060	1273.717407
1.748133	1273.505859
1.748206	1235.095581
1.748279	1200.941528
1.748352	1311.057617
1.748425	1302.355469
1.748498	1285.173218
1.748571	1297.682129
1.748644	1191.464478
1.748717	1360.842041
1.748791	1297.035889
1.748864	1140.015381
1.748937	1288.130737
1.749010	1287.916870
1.749083	1347.005127
1.749156	1211.256348
1.749229	1287.275635
1.749303	1291.295654
1.749376	1261.449951
1.749449	1172.361206
1.749522	1201.788208
1.749596	1265.052979
1.749669	1324.066406
1.749742	1340.764893
1.749816	1349.000122
1.749889	1259.985352
1.749962	1318.960449
1.750035	1238.433594
1.750109	1415.721558
1.750182	1347.881348
1.750256	1339.208496
1.750329	1284.075317
1.750402	1220.513794
1.750476	1279.426758
1.750549	1241.218140
1.750623	1219.906616
1.750696	1329.435425
1.750769	1367.192627
1.750843	1261.490112
1.750916	1286.590820
1.750990	1341.206787
1.751063	1353.635132
1.751137	1256.437378
1.751211	1437.496948
1.751284	1378.250977
1.751358	1424.378052
1.751431	1352.513428
1.751505	1381.778442
1.751578	1373.125244
1.751652	1351.840942
1.751725	1360.038208
1.751799	1364.022705
1.751873	1283.820923
1.751946	1283.608154
1.752020	1422.254639
1.752094	1291.597046
1.752167	1409.163940
1.752241	1350.049683
1.752315	1286.750122
1.752389	1358.011108
1.752462	1391.415527
1.752536	1370.170166
1.752610	1399.359131
1.752684	1331.901978
1.752757	1377.891113
1.752831	1474.267212
1.752905	1398.432129
1.752979	1410.796875
1.753053	1385.374634
1.753127	1448.106323
1.753200	1384.915771
1.753274	1447.626709
1.753348	1334.113281
1.753422	1401.006470
1.753496	1308.507813
1.753570	1438.281616
1.753644	1387.733032
1.753718	1421.038086
1.753792	1441.758545
1.753866	1508.567383
1.753940	1411.952881
1.754014	1549.958740
1.754088	1369.601685
1.754162	1490.817993
1.754236	1519.880249
1.754310	1398.225830
1.754384	1389.623169
1.754458	1427.057495
1.754532	1472.847778
1.754606	1543.724243
1.754680	1526.737427
1.754754	1472.116821
1.754828	1455.147339
1.754902	1434.002808
1.754977	1521.547119
1.755051	1370.837646
1.755125	1475.078125
1.755199	1483.190063
1.755273	1416.107788
1.755347	1461.816406
1.755422	1536.741333
1.755496	1523.961426
1.755570	1394.298462
1.755645	1623.629883
1.755719	1514.859009
1.755793	1539.643433
1.755867	1460.124878
1.755942	1497.423340
1.756016	1430.449219
1.756090	1526.116211
1.756165	1467.497437
1.756239	1446.413208
1.756314	1500.353516
1.756388	1462.602783
1.756462	1462.360962
1.756537	1628.742554
1.756611	1520.186035
1.756685	1511.606445
1.756760	1586.299805
1.756834	1498.618286
1.756909	1465.073486
1.756983	1577.190552
1.757058	1606.055298
1.757132	1489.307739
1.757207	1468.264648
1.757281	1588.624390
1.757356	1530.149658
1.757431	1592.256836
1.757505	1612.776978
1.757580	1562.639038
1.757654	1616.399414
1.757729	1582.895752
1.757804	1570.172485
1.757878	1569.913208
1.757953	1565.501343
1.758028	1664.886841
1.758102	1660.460693
1.758177	1656.036011
1.758252	1547.868164
1.758326	1601.550781
1.758401	1543.208618
1.758476	1621.760498
1.758550	1592.463501
1.758625	1654.395874
1.758700	1612.666016
1.758775	1587.529785
1.758850	1508.525879
1.758924	1616.010986
1.758999	1487.313232
1.759074	1652.757690
1.759149	1656.626465
1.759224	1614.944092
1.759298	1643.658936
1.759373	1639.248169
1.759448	1647.255249
1.759523	1779.404175
1.759598	1630.161743
1.759673	1646.439819
1.759748	1679.256958
1.759823	1625.219360
1.759898	1711.780640
1.759973	1628.817139
1.760048	1702.949097
1.760123	1648.943115
1.760198	1607.350952
1.760273	1689.712280
1.760348	1586.167480
1.760423	1685.024902
1.760498	1705.393311
1.760573	1713.369263
1.760648	1692.447021
1.760723	1700.422363
1.760798	1679.509033
1.760874	1633.847412
1.760949	1683.080322
1.761024	1666.304688
1.761099	1666.029907
1.761174	1682.247803
1.761249	1640.745605
1.761325	1776.494385
1.761400	1755.595825
1.761475	1697.620239
1.761550	1734.418213
1.761626	1713.536865
1.761701	1770.911987
1.761776	1712.971924
1.761851	1844.434937
1.761927	1683.592651
1.762002	1728.587646
1.762077	1794.142822
1.762153	1703.331909
1.762228	1863.483521
1.762303	1727.448364
1.762379	1743.612793
1.762454	1776.218384
1.762529	1747.149170
1.762605	1779.743286
1.762680	1820.545898
1.762756	1725.741089
1.762831	1733.673218
1.762907	1712.849731
1.762982	1827.560059
1.763058	1934.020142
1.763133	1876.224243
1.763209	1802.027954
1.763284	1809.939453
1.763360	1809.641235
1.763435	1727.286743
1.763511	1854.168701
1.763586	1862.066284
1.763662	1746.937378
1.763738	1799.951172
1.763813	1787.356445
1.763889	1860.839966
1.763964	1856.435425
1.764040	1856.129639
1.764116	1904.984985
1.764191	1925.151611
1.764267	1761.018921
1.764343	1760.729004
1.764419	1821.849731
1.764494	1887.043701
1.764570	1919.474609
1.764646	1714.557495
1.764722	1849.289795
1.764797	1938.980225
1.764873	1860.951050
1.764949	1877.002075
1.765025	1819.451904
1.765100	1876.384155
1.765176	1896.511963
1.765252	1871.680054
1.765328	2018.466675
1.765404	1793.443481
1.765480	1919.771606
1.765556	1764.265625
1.765632	1780.308472
1.765708	1914.741455
1.765783	1857.279297
1.765859	1946.761475
1.765935	1791.378784
1.766011	1872.682495
1.766087	1921.325439
1.766163	1949.559326
1.766239	1871.758423
1.766315	1952.995239
1.766391	1944.520874
1.766467	1968.656372
1.766544	1829.775024
1.766620	1915.039673
1.766696	1890.281494
1.766772	1889.970581
1.766848	1930.385254
1.766924	1991.145874
1.767000	1986.747192
1.767076	2027.125854
1.767152	2116.329590
1.767229	1989.836548
1.767305	1981.372314
1.767381	1920.028687
1.767457	2053.930176
1.767533	2029.193481
1.767610	1939.411133
1.767686	1943.157593
1.767762	2048.515625
1.767838	2076.625732
1.767915	1954.389038
1.767991	2128.755859
1.768067	2002.488770
1.768144	1924.997314
1.768220	2005.891113
1.768296	2102.997559
1.768373	2110.770264
1.768449	2013.019287
1.768525	2065.440430
1.768602	2065.101074
1.768678	1943.066528
1.768755	2023.864136
1.768831	2149.241943
1.768908	2047.526123
1.768984	2030.974365
1.769060	2115.757324
1.769137	2123.514893
1.769214	2179.891846
1.769290	2175.482666
1.769367	2094.114990
1.769443	2174.768066
1.769520	2012.443481
1.769596	2044.501099
1.769673	2230.366455
1.769749	2116.678955
1.769826	1998.982178
1.769903	2140.259033
1.769979	2208.675781
1.770056	2188.090332
1.770132	2118.985352
1.770209	2175.242188
1.770286	2162.757568
1.770362	2113.899902
1.770439	2230.748047
1.770516	2137.449219
1.770593	2149.217773
1.770669	2294.276855
1.770746	2209.090576
1.770823	2200.652344
1.770900	2272.961182
1.770976	2147.454346
1.771053	2195.532715
1.771130	2239.560059
1.771207	2206.916016
1.771284	2166.214600
1.771361	2234.424316
1.771437	2193.731689
1.771514	2217.563232
1.771591	2180.917969
1.771668	2293.417236
1.771745	2228.561768
1.771822	2187.903076
1.771899	2360.775146
1.771976	2259.688721
1.772053	2215.017578
1.772130	2230.760742
1.772207	2206.238770
1.772284	2205.876953
1.772361	2181.366943
1.772438	2337.945313
1.772515	2337.561768
1.772592	2296.951660
1.772669	2252.332520
1.772746	2167.514404
1.772823	2319.945801
1.772900	2263.284668
1.772977	2238.797119
1.773054	2322.823242
1.773132	2258.153320
1.773209	2297.957031
1.773286	2333.730957
1.773363	2417.686035
1.773440	2312.888428
1.773517	2288.420654
1.773595	2360.299561
1.773672	2275.629883
1.773749	2178.949707
1.773826	2339.078125
1.773904	2386.832520
1.773981	2350.343750
1.774058	2309.856689
1.774136	2345.563721
1.774213	2409.320801
1.774290	2388.885010
1.774368	2412.538574
1.774445	2392.108887
1.774522	2387.710449
1.774600	2443.397217
1.774677	2442.996826
1.774755	2382.532471
1.774832	2378.138428
1.774909	2509.845947
1.774987	2425.386719
1.775064	2308.941895
1.775142	2344.572266
1.775219	2500.200684
1.775297	2411.798584
1.775374	2411.403320
1.775452	2407.010010
1.775529	2286.684570
1.775607	2386.236084
1.775684	2445.791016
1.775762	2409.428711
1.775840	2365.088135
1.775917	2428.611572
1.775995	2480.132813
1.776072	2523.650879
1.776150	2535.215088
1.776228	2411.053711
1.776305	2406.667725
1.776383	2486.083496
1.776461	2557.493652
1.776538	2457.344971
1.776616	2433.011230
1.776694	2460.528076
1.776772	2503.984863
1.776849	2503.574951
1.776927	2547.010254
1.777005	2514.710938
1.777083	2542.191650
1.777161	2545.759521
1.777238	2529.409424
1.777316	2576.787354
1.777394	2552.473389
1.777472	2591.869141
1.777550	2539.695557
1.777628	2579.080566
1.777706	2590.596680
1.777783	2602.108887
1.777861	2613.617432
1.777939	2664.896484
1.778017	2549.133057
1.778095	2656.072021
1.778173	2596.004639
1.778251	2591.604980
1.778329	2607.077881
1.778407	2614.598389
1.778485	2669.791016
1.778563	2593.881348
1.778641	2637.144531
1.778719	2672.451660
1.778797	2644.222412
1.778875	2619.971924
1.778953	2643.357178
1.779032	2638.956543
1.779110	2606.782959
1.779188	2622.224854
1.779266	2673.359131
1.779344	2740.339844
1.779422	2652.659180
1.779500	2660.154297
1.779579	2715.212402
1.779657	2782.142090
1.779735	2773.762207
1.779813	2737.651611
1.779892	2737.203857
1.779970	2673.387207
1.780048	2787.787842
1.780126	2783.372559
1.780205	2751.248535
1.780283	2683.512939
1.780361	2924.471680
1.780440	2734.072266
1.780518	2781.097900
1.780596	2879.528076
1.780675	2784.143311
1.780753	2787.642090
1.780832	2803.000244
1.780910	2747.202637
1.780988	2841.605469
1.781067	2789.771240
1.781145	2840.676514
1.781224	2757.257568
1.781302	2820.000000
1.781381	2847.181641
1.781459	2834.871582
1.781538	2862.041748
1.781616	2758.951904
1.781695	2880.837891
1.781773	2955.335693
1.781852	2875.951416
1.781931	2851.814941
1.782009	2918.393066
1.782088	2917.916260
1.782166	2901.669434
1.782245	2838.125977
1.782324	2853.427002
1.782402	2908.128418
1.782481	3014.031006
1.782560	2836.271484
1.782638	2961.843994
1.782717	2906.228516
1.782796	3019.936523
1.782875	3003.696289
1.782953	3030.758057
1.783032	3018.456787
1.783111	2947.137939
1.783190	3013.536621
1.783268	2954.042236
1.783347	3075.477539
1.783426	2968.806152
1.783505	2826.785400
1.783584	2991.421875
1.783663	3057.747803
1.783742	3057.248535
1.783820	2946.737793
1.783899	3189.813721
1.783978	3000.763184
1.784057	2937.440430
1.784136	3070.458984
1.784215	3026.773926
1.784294	3151.884277
1.784373	3143.520508
1.784452	3033.139404
1.784531	3185.649658
1.784610	3126.291016
1.784689	3180.687500
1.784768	3027.238037
1.784847	3140.442627
1.784926	3030.169678
1.785005	3068.868896
1.785084	3213.361084
1.785164	3044.358398
1.785243	3071.283691
1.785322	3047.281738
1.785401	3234.760742
1.785480	3167.668701
1.785559	3045.789795
1.785638	2994.407471
1.785718	3228.735840
1.785797	3255.599854
1.785876	3110.312012
1.785955	3047.217285
1.786035	3144.496582
1.786114	3304.311035
1.786193	3073.094238
1.786273	3264.141357
1.786352	3146.353516
1.786431	3165.379395
1.786510	3301.616455
1.786590	3308.890869
1.786669	3179.454346
1.786748	3374.201904
1.786828	3233.082764
1.786907	3255.979736
1.786987	3208.607666
1.787066	3274.431396
1.787146	3289.505859
1.787225	3160.219727
1.787304	3300.135498
1.787384	3260.594971
1.787463	3205.468750
1.787543	3329.712891
1.787622	3227.813232
1.787702	3231.184570
1.787781	3359.260498
1.787861	3335.334229
1.787941	3319.207275
1.788020	3334.246582
1.788100	3302.546875
1.788179	3379.885742
1.788259	3348.188721
1.788339	3335.965088
1.788418	3374.340820
1.788498	3307.637939
1.788578	3404.366455
1.788657	3392.141113
1.788737	3352.693848
1.788817	3371.591309
1.788896	3472.134033
1.788976	3378.267334
1.789056	3420.472412
1.789136	3264.464111
1.789215	3415.471924
1.789295	3306.135254
1.789375	3309.480713
1.789455	3374.964844
1.789535	3382.180908
1.789614	3393.277100
1.789694	3353.905762
1.789774	3411.577148
1.789854	3465.349121
1.789934	3484.184326
1.790014	3413.789063
1.790094	3525.714111
1.790174	3494.115479
1.790254	3478.036377
1.790334	3423.194824
1.790413	3554.426025
1.790493	3476.336670
1.790573	3355.648926
1.790653	3599.180176
1.790734	3432.028076
1.790814	3667.721191
1.790894	3581.931885
1.790974	3391.633789
1.791054	3542.053955
1.791134	3638.238770
1.791214	3583.468506
1.791294	3493.893066
1.791374	3609.381104
1.791454	3570.113770
1.791534	3542.461182
1.791615	3626.951172
1.791695	3591.566162
1.791775	3590.981201
1.791855	3505.370850
1.791935	3624.589111
1.792016	3581.500000
1.792096	3716.118652
1.792176	3700.064209
1.792256	3556.580811
1.792337	3776.079834
1.792417	3601.747314
1.792497	3628.179199
1.792578	3643.025146
1.792658	3750.470215
1.792738	3684.275635
1.792819	3795.536133
1.792899	3540.380859
1.792979	3659.340576
1.793060	3774.405762
1.793140	3789.210449
1.793221	3649.845459
1.793301	3707.053467
1.793381	3741.125977
1.793462	3767.482666
1.793542	3659.024414
1.793623	3669.981689
1.793703	3688.636230
1.793784	3664.937500
1.793864	3768.266602
1.793945	3767.653320
1.794026	3905.562744
1.794106	3866.454834
1.794187	3715.808594
1.794267	3765.201416
1.794348	3764.588623
1.794428	3848.559814
1.794509	3705.702393
1.794590	3739.690430
1.794670	3827.467285
1.794751	3823.002441
1.794832	3818.538818
1.794912	4013.806641
1.794993	3867.220703
1.795074	3843.553223
1.795155	3750.789795
1.795235	3796.241211
1.795316	3807.137207
1.795397	4036.750732
1.795478	3993.891602
1.795559	3824.459229
1.795639	3877.531982
1.795720	3938.256836
1.795801	3906.943359
1.795882	4078.814209
1.795963	3997.660889
1.796044	3981.681885
1.796125	3869.917969
1.796205	4041.682617
1.796286	3891.641357
1.796367	3848.881348
1.796448	3932.495850
1.796529	4065.853516
1.796610	4000.118652
1.796691	3995.640869
1.796772	3914.632080
1.796853	4009.645508
1.796934	3982.215820
1.797015	4100.135742
1.797096	3980.920898
1.797177	3827.333252
1.797258	3987.272461
1.797340	3952.223633
1.797421	4119.733398
1.797502	4099.958496
1.797583	4118.394043
1.797664	4018.410400
1.797745	4059.767822
1.797826	4238.579102
1.797908	4138.624512
1.797989	4305.912598
1.798070	4144.912109
1.798151	4151.870605
1.798232	4010.024658
1.798314	4024.632080
1.798395	4130.775391
1.798476	4130.104004
1.798558	4175.188477
1.798639	4258.381348
1.798720	4253.877441
1.798802	4272.241699
1.798883	4122.938965
1.798964	4217.515137
1.799046	4136.835938
1.799127	4132.354980
1.799208	4287.811523
1.799290	4245.233887
1.799371	4126.534180
1.799453	4224.823242
1.799534	4174.665039
1.799616	4094.083740
1.799697	4161.895996
1.799778	4077.538818
1.799860	4282.241211
1.799942	4369.001953
1.800023	4269.444824
1.800105	4097.696777
1.800186	4169.242188
1.800268	4172.365234
1.800349	4171.687500
1.800431	4224.191895
1.800513	4204.515137
1.800594	4484.847168
1.800676	4248.711914
1.800757	4316.354492
1.800839	4213.170898
1.800921	4394.648438
1.801003	4242.158203
1.801084	4362.870605
1.801166	4290.091309
1.801248	4452.475098
1.801329	4288.698242
1.801411	4397.950684
1.801493	4325.212402
1.801575	4415.472656
1.801656	4486.756348
1.801738	4451.927734
1.801820	4386.804199
1.801902	4465.632813
1.801984	4385.379883
1.802066	4456.609863
1.802148	4410.456543
1.802229	4504.370117
1.802311	4409.024414
1.802393	4389.389160
1.802475	4524.876465
1.802557	4459.835449
1.802639	4368.340820
1.802721	4447.043457
1.802803	4529.500977
1.802885	4513.644531
1.802967	4478.895020
1.803049	4481.946777
1.803131	4481.219238
1.803213	4533.381348
1.803295	4502.427734
1.803377	4516.803711
1.803459	4463.206543
1.803541	4443.605469
1.803623	4567.451172
1.803706	4495.000977
1.803788	4573.515625
1.803870	4489.769531
1.803952	4549.397461
1.804034	4552.431152
1.804116	4668.595703
1.804199	4498.166992
1.804281	4716.088867
1.804363	4624.861816
1.804445	4518.589355
1.804528	4687.417480
1.804610	4543.495117
1.804692	4655.761719
1.804775	4621.110840
1.804857	4624.126465
1.804939	4491.602539
1.805022	4615.097656
1.805104	4621.876465
1.805186	4545.863770
1.805269	4737.015137
1.805351	4849.104004
1.805434	4618.877930
1.805516	4670.778320
1.805598	4508.336914
1.805681	4770.768555
1.805763	4645.952637
1.805846	4641.440430
1.805928	4757.174805
1.806011	4639.935059
1.806093	4804.464844
1.806176	4657.208984
1.806258	4908.052246
1.806341	4764.581543
1.806423	4643.681641
1.806506	4748.022949
1.806589	4837.319336
1.806671	4735.226563
1.806754	4813.241211
1.806836	4579.902344
1.806919	4729.172852
1.807002	4807.150391
1.807084	4828.865234
1.807167	4741.866699
1.807250	4988.459473
1.807333	4849.000488
1.807415	4735.813965
1.807498	4892.381348
1.807581	4580.713867
1.807664	4905.774414
1.807746	4807.628418
1.807829	4735.719238
1.807912	4779.868164
1.807995	4880.139160
1.808078	4778.318359
1.808160	4844.885742
1.808243	4821.656738
1.808326	4820.875000
1.808409	4835.051270
1.808492	4800.618164
1.808575	4919.462402
1.808658	4885.026855
1.808741	4787.073242
1.808824	4846.079590
1.808907	4946.159668
1.808990	4922.947266
1.809073	4937.087402
1.809156	5029.636230
1.809239	4801.086426
1.809322	5020.540527
1.809405	4937.619629
1.809488	4981.598145
1.809571	4995.714355
1.809654	5073.241699
1.809737	5143.284180
1.809820	4825.475586
1.809903	4955.191895
1.809987	4995.395996
1.810070	5020.677246
1.810153	5008.683594
1.810236	4974.337402
1.810319	5215.688477
1.810403	4946.651367
1.810486	5105.994141
1.810569	5172.192871
1.810652	5167.631836
1.810735	5088.622559
1.810819	5087.798340
1.810902	4915.795898
1.810985	5067.546875
1.811069	5226.688477
1.811152	5248.158203
1.811235	5016.739258
1.811319	5138.628906
1.811402	5093.184570
1.811486	5036.604004
1.811569	5236.476074
1.811652	5153.879395
1.811736	5164.190430
1.811819	5196.785645
1.811903	5028.812012
1.811986	5035.424316
1.812070	5235.102051
1.812153	5145.160645
1.812237	5292.792480
1.812320	5199.159668
1.812404	5157.502441
1.812487	5086.180664
1.812571	5137.286133
1.812654	5106.785156
1.812738	5254.279297
1.812822	5105.131348
1.812905	5163.613770
1.812989	5207.252441
1.813072	5098.945801
1.813156	5079.595215
1.813240	5108.408203
1.813323	5292.772461
1.813407	5121.566895
1.813491	5135.548340
1.813575	5160.630859
1.813658	5337.463867
1.813742	5184.865723
1.813826	5135.923340
1.813910	5220.183105
1.813993	5174.949707
1.814077	5288.763672
1.814161	5265.720215
1.814245	5312.931641
1.814329	5334.251465
1.814413	5370.348633
1.814497	5321.438477
1.814580	5342.746094
1.814664	5264.302246
1.814748	5052.912109
1.814832	5391.854492
1.814916	5494.370605
1.815000	5401.185059
1.815084	5245.277832
1.815168	5454.796387
1.815252	5483.434082
1.815336	5405.067871
1.815420	5241.882813
1.815504	5403.318359
1.815588	5299.188965
1.815672	5342.576172
1.815756	5286.414551
1.815840	5403.507324
1.815925	5428.429688
1.816009	5265.424805
1.816093	5190.891113
1.816177	5458.946289
1.816261	5502.257813
1.816345	5328.299316
1.816429	5437.888184
1.816514	5241.909180
1.816598	5476.614258
1.816682	5343.250977
1.816766	5360.783203
1.816851	5477.635254
1.816935	5417.898438
1.817019	5428.054688
1.817104	5438.207520
1.817188	5470.414551
1.817272	5407.041504
1.817356	5468.644531
1.817441	5570.647949
1.817525	5426.461914
1.817610	5543.131836
1.817694	5538.562500
1.817778	5372.417969
1.817863	5584.501465
1.817947	5524.862305
1.818032	5523.968262
1.818116	5493.716309
1.818201	5489.158203
1.818285	5557.974609
1.818370	5410.354004
1.818454	5585.516113
1.818539	5441.605469
1.818623	5488.386719
1.818708	5520.490234
1.818792	5512.267090
1.818877	5515.040039
1.818961	5499.492676
1.819046	5472.959961
1.819131	5581.956055
1.819215	5617.674316
1.819300	5389.751953
1.819385	5681.754395
1.819469	5556.384277
1.819554	5672.597168
1.819639	5587.519531
1.819723	5539.054688
1.819808	5516.211426
1.819893	5478.745605
1.819978	5726.520996
1.820063	5553.753906
1.820147	5666.179199
1.820232	5548.303223
1.820317	5605.876465
1.820402	5667.085449
1.820487	5655.209473
1.820571	5581.242188
1.820656	5719.117676
1.820741	5594.043457
1.820826	5647.901855
1.820911	5595.884766
1.820996	5711.770508
1.821081	5718.145020
1.821166	5728.166504
1.821251	5709.000977
1.821336	5540.300293
1.821421	5754.562988
1.821506	5549.447754
1.821591	5690.728027
1.821676	5638.778320
1.821761	5688.888184
1.821846	5746.269531
1.821931	5595.969238
1.822016	5722.556152
1.822101	5736.199219
1.822186	5738.913574
1.822272	5617.837891
1.822357	5780.741699
1.822442	5521.390625
1.822527	5833.459961
1.822612	5734.277344
1.822697	5638.765137
1.822783	5601.480469
1.822868	5706.040527
1.822953	5759.660645
1.823038	5707.832031
1.823124	5703.274414
1.823209	5727.793457
1.823294	5901.290527
1.823380	5711.409668
1.823465	5616.038574
1.823550	5753.148438
1.823636	5632.380859
1.823721	5736.766113
1.823806	5739.469238
1.823892	5763.949707
1.823977	5614.225098
1.824063	5762.086914
1.824148	5801.063477
1.824233	5698.560547
1.824319	5810.069336
1.824404	5932.420410
1.824490	5739.305664
1.824575	5517.253418
1.824661	5773.695801
1.824746	5783.634277
1.824832	5626.900391
1.824918	5760.029785
1.825003	5748.232910
1.825089	5707.467773
1.825174	5757.238770
1.825260	5770.790039
1.825346	5842.252441
1.825431	5754.449219
1.825517	5782.467773
1.825603	5774.297852
1.825688	5827.625977
1.825774	5794.133301
1.825860	5767.883789
1.825945	5640.404785
1.826031	5892.547852
1.826117	5747.017090
1.826203	5756.930664
1.826288	5842.720215
1.826374	5935.707520
1.826460	5819.160156
1.826546	5912.120605
1.826632	6044.771973
1.826717	5805.509766
1.826803	5952.574219
1.826889	5926.348633
1.826975	5853.218750
1.827061	5855.881348
1.827147	5963.160156
1.827233	5760.210938
1.827319	5867.470215
1.827405	5830.465332
1.827491	5746.605469
1.827577	5972.765137
1.827663	5831.245117
1.827749	5960.025879
1.827835	5868.993164
1.827921	5824.818848
1.828007	5960.741211
1.828093	6017.395996
1.828179	5775.190918
1.828265	5957.854004
1.828351	5769.727051
1.828438	5930.739258
1.828524	5778.658691
1.828610	5712.968750
1.828696	5837.941895
1.828782	5916.120605
1.828868	5936.740723
1.828955	5791.971680
1.829041	6057.042969
1.829127	5826.042480
1.829213	5803.541016
1.829300	5996.623047
1.829386	5959.731445
1.829472	5944.401855
1.829558	5868.027344
1.829645	6032.248535
1.829731	5963.063965
1.829818	5965.690918
1.829904	5910.894531
1.829990	5902.763672
1.830077	5952.039063
1.830163	6012.060059
1.830250	5925.012207
1.830336	5777.029785
1.830422	5887.245117
1.830509	6004.594727
1.830595	6007.209473
1.830682	6013.407227
1.830768	6008.854004
1.830855	5889.660645
1.830941	5931.693359
1.831028	5952.224609
1.831115	5872.486328
1.831201	5946.723145
1.831288	5877.750488
1.831374	6073.649414
1.831461	6004.678223
1.831547	5960.774902
1.831634	5723.709473
1.831721	5926.660156
1.831807	5864.909180
1.831894	5853.235840
1.831981	5966.691895
1.832068	5969.303223
1.832154	5964.766113
1.832241	5903.058105
1.832328	6023.577148
1.832415	5861.859863
1.832501	5996.632813
1.832588	5852.826172
1.832675	5962.563965
1.832762	5990.160645
1.832849	5810.731934
1.832936	5948.972168
1.833022	5894.491211
1.833109	5986.295410
1.833196	5974.628906
1.833283	5848.842285
1.833370	5965.569824
1.833457	5993.128906
1.833544	6084.842773
1.833631	5969.811035
1.833718	6072.188965
1.833805	5939.381348
1.833892	5938.423340
1.833979	6154.732910
1.834066	6046.904297
1.834153	6010.322754
1.834240	5980.873047
1.834327	6061.775879
1.834414	5982.502441
1.834501	6141.661621
1.834589	5977.014648
1.834676	6015.179199
1.834763	5843.492188
1.834850	6112.807617
1.834937	6150.931641
1.835024	5872.659180
1.835111	5928.580566
1.835199	6172.831543
1.835286	6004.837891
1.835373	5982.553711
1.835461	5981.588867
1.835548	6058.755859
1.835635	6203.363770
1.835722	6142.008301
1.835810	6059.374023
1.835897	6147.125488
1.835984	6021.934082
1.836072	6045.798828
1.836159	5924.211426
1.836246	6033.208496
1.836334	5986.133789
1.836421	6112.813965
1.836509	6030.290039
1.836596	5993.871582
1.836684	6031.889160
1.836771	5984.852051
1.836859	5881.144043
1.836946	5965.210449
1.837034	5957.165039
1.837121	6058.897461
1.837209	6079.164063
1.837296	6046.323730
1.837384	6101.979492
1.837471	6100.995605
1.837559	6025.708008
1.837647	5961.057129
1.837734	6052.062012
1.837822	5937.915527
1.837910	5894.525879
1.837997	5914.788086
1.838085	6058.764160
1.838173	6174.419434
1.838260	6187.558594
1.838348	6281.956055
1.838436	5966.542969
1.838524	5912.600586
1.838611	6070.562988
1.838699	6171.979492
1.838787	6029.771973
1.838875	5880.550781
1.838963	6250.166016
1.839051	6093.899902
1.839138	6149.365723
1.839226	6120.154785
1.839314	6186.179199
1.839402	5948.917969
1.839490	6046.680176
1.839578	5932.899414
1.839666	6238.584961
1.839754	6057.852539
1.839842	5996.976563
1.839930	6055.899902
1.840018	6114.803711
1.840106	6177.209961
1.840194	6179.735352
1.840282	6164.656738
1.840370	6121.421875
1.840458	6060.603516
1.840546	6056.107910
1.840634	6097.352051
1.840722	6215.975098
1.840810	6120.007324
1.840898	6203.421387
1.840987	5935.196777
1.841075	6197.906250
1.841163	6010.613281
1.841251	6227.538086
1.841339	5875.149902
1.841428	6028.787109
1.841516	6108.607910
1.841604	6086.550781
1.841692	5969.687500
1.841781	6228.540527
1.841869	6052.014160
1.841957	6103.687012
1.842046	6053.573242
1.842134	6112.246094
1.842222	6072.671387
1.842311	6050.646973
1.842399	6161.897461
1.842487	6094.281250
1.842576	6138.875977
1.842664	5973.134766
1.842753	6242.041504
1.842841	5985.227051
1.842930	6162.949707
1.843018	6161.956543
1.843107	6153.958496
1.843195	6142.460938
1.843284	6229.006348
1.843372	6038.957031
1.843461	6083.487305
1.843549	6117.504395
1.843638	5938.062012
1.843726	6059.555664
1.843815	6093.559570
1.843904	6281.440918
1.843992	6032.148926
1.844081	6171.030273
1.844170	6114.103516
1.844258	6039.719238
1.844347	6063.208496
1.844436	6121.631348
1.844525	6033.307129
1.844613	6210.475586
1.844702	6024.377930
1.844791	6156.097168
1.844880	6004.980957
1.844968	6147.132324
1.845057	6097.279785
1.845146	6005.568359
1.845235	5945.287598
1.845324	6122.241211
1.845412	6110.791016
1.845501	6078.420898
1.845590	6039.086914
1.845679	6208.938477
1.845768	5984.856934
1.845857	6203.453125
1.845946	6132.763184
1.846035	6086.483887
1.846124	6033.252441
1.846213	6143.731445
1.846302	6149.706055
1.846391	6086.044434
1.846480	6085.064453
1.846569	6178.060059
1.846658	5964.782715
1.846747	5911.629883
1.846836	6161.159668
1.846925	6083.643555
1.847015	6061.796875
1.847104	6088.638184
1.847193	6108.517578
1.847282	5971.965332
1.847371	6203.865234
1.847460	6157.691406
1.847550	5899.591309
1.847639	6086.230469
1.847728	6102.616699
1.847817	6004.396484
1.847907	6079.817871
1.847996	6044.122070
1.848085	5880.007813
1.848175	5858.237793
1.848264	6048.142090
1.848353	6206.760742
1.848442	6205.761230
1.848532	6027.878906
1.848621	6117.069336
1.848711	5977.397461
1.848800	6004.167480
1.848889	5906.151367
1.848979	6068.078125
1.849068	6018.591797
1.849158	6028.015625
1.849247	5999.334473
1.849337	5998.368164
1.849426	5931.610840
1.849516	5947.966309
1.849605	6137.395996
1.849695	5890.674316
1.849785	6069.670410
1.849874	5951.056152
1.849964	6143.821777
1.850053	6125.538574
1.850143	5896.307617
1.850233	6071.700684
1.850322	6070.722656
1.850412	5883.090332
1.850502	5961.631348
1.850591	6053.968750
1.850681	6014.990234
1.850771	6162.558594
1.850861	6009.599121
1.850950	5853.235840
1.851040	6066.359863
1.851130	5923.845703
1.851220	6074.761230
1.851310	6087.586914
1.851399	6000.345703
1.851489	6006.279297
1.851579	5988.065430
1.851669	6014.691406
1.851759	6130.963379
1.851849	5892.085938
1.851939	6008.339844
1.852029	6086.643555
1.852119	6030.527344
1.852208	6060.565430
1.852298	6001.026367
1.852389	6031.059570
1.852479	5957.768555
1.852569	6104.869141
1.852659	5955.850586
1.852749	6040.944824
1.852839	5850.685547
1.852929	5863.507813
1.853019	6055.229980
1.853109	5930.418457
1.853199	5929.463867
1.853289	5976.652344
1.853379	5865.666016
1.853470	5885.348145
1.853560	5987.515137
1.853650	5983.114746
1.853740	5968.407227
1.853830	6049.898438
1.853921	5904.656738
1.854011	5999.869141
1.854101	5992.035645
1.854191	6066.603027
1.854282	5859.663086
1.854372	5790.076660
1.854462	6077.400391
1.854553	5808.798828
1.854643	5780.419922
1.854733	5889.248047
1.854824	5819.711914
1.854914	5925.069824
1.855004	5989.253906
1.855095	5940.301270
1.855185	5709.722656
1.855276	5859.576172
1.855366	5923.729004
1.855457	5765.200195
1.855547	5908.122070
1.855638	5883.200195
1.855728	5878.829102
1.855819	6062.743652
1.855909	5894.050781
1.856000	5787.012695
1.856091	5864.780273
1.856181	5863.835938
1.856272	5948.407227
1.856362	5735.407227
1.856453	5953.331543
1.856544	5849.805176
1.856634	5886.465820
1.856725	5817.161621
1.856816	5946.082520
1.856907	5832.373047
1.856997	5855.347656
1.857088	5796.339355
1.857179	5880.783691
1.857270	5794.474121
1.857360	5858.407227
1.857451	5929.146484
1.857542	5750.722168
1.857633	5787.332520
1.857724	5735.224121
1.857815	5942.386719
1.857905	5805.002930
1.857996	5971.165527
1.858087	5786.086426
1.858178	5884.017578
1.858269	5722.871582
1.858360	5865.084473
1.858451	5721.029785
1.858542	5982.436523
1.858633	5787.314453
1.858724	5932.831055
1.858815	5955.712402
1.858906	5941.135742
1.858997	5769.973633
1.859088	5741.816895
1.859179	5645.608398
1.859270	5859.055176
1.859362	5749.250977
1.859453	5949.006836
1.859544	5808.615723
1.859635	5916.490234
1.859726	5881.540527
1.859817	5605.260254
1.859909	5845.661621
1.860000	5735.981934
1.860091	5752.046875
1.860182	5652.608398
1.860273	5767.178223
1.860365	5705.123535
1.860456	5632.903320
1.860547	5608.232910
1.860639	5736.312988
1.860730	5847.382813
1.860821	5703.928223
1.860913	5726.759277
1.861004	5705.485352
1.861096	5806.313477
1.861187	5568.009766
1.861278	5723.074219
1.861370	5827.240234
1.861461	5677.170898
1.861553	5611.870117
1.861644	5668.567871
1.861736	5667.655762
1.861827	5663.356445
1.861919	5615.032715
1.862010	5570.109863
1.862102	5714.791992
1.862193	5652.942871
1.862285	5608.035156
1.862376	5559.758301
1.862468	5606.230957
1.862560	5629.008789
1.862651	5597.662598
1.862743	5671.160156
1.862835	5545.143555
1.862926	5618.625977
1.863018	5681.943848
1.863110	5610.059082
1.863201	5436.826660
1.863293	5533.927734
1.863385	5576.950195
1.863477	5535.524414
1.863569	5608.924316
1.863660	5429.078613
1.863752	5532.853516
1.863844	5565.715332
1.863936	5628.938477
1.864028	5530.183594
1.864120	5509.052246
1.864212	5501.419922
1.864303	5520.770020
1.864395	5506.394043
1.864487	5552.707520
1.864579	5602.377441
1.864671	5480.144531
1.864763	5526.439941
1.864855	5518.812500
1.864947	5467.394043
1.865039	5520.405273
1.865131	5364.606934
1.865223	5323.338867
1.865315	5494.175781
1.865408	5213.915039
1.865500	5596.736816
1.865592	5323.279297
1.865684	5514.191895
1.865776	5382.115723
1.865868	5411.519531
1.865960	5555.246582
1.866053	5423.227051
1.866145	5368.568359
1.866237	5287.038086
1.866329	5326.514160
1.866421	5359.257813
1.866514	5422.226074
1.866606	5374.328613
1.866698	5430.557129
1.866791	5379.315430
1.866883	5371.735352
1.866975	5401.082520
1.867068	5403.570313
1.867160	5402.700684
1.867252	5374.990234
1.867345	5424.445313
1.867437	5373.261230
1.867530	5238.254883
1.867622	5217.293945
1.867715	5270.094727
1.867807	5272.598633
1.867900	5154.451660
1.867992	5307.762207
1.868085	5290.156738
1.868177	5429.996582
1.868270	5211.422363
1.868362	5140.261719
1.868455	5293.450195
1.868547	5302.641602
1.868640	5248.235352
1.868733	5150.341309
1.868825	5179.626953
1.868918	5205.557617
1.869011	5221.445313
1.869103	5203.883301
1.869196	5156.232422
1.869289	5279.105957
1.869381	5107.774902
1.869474	5347.595215
1.869567	5259.850586
1.869660	5352.557129
1.869752	5151.258301
1.869845	5240.612305
1.869938	5156.280273
1.870031	5081.992676
1.870124	5254.776367
1.870216	5167.144531
1.870309	5122.927246
1.870402	5108.755859
1.870495	5097.925293
1.870588	5077.090332
1.870681	5142.979004
1.870774	5042.109863
1.870867	5051.301758
1.870960	5027.153809
1.871053	5186.334961
1.871146	5128.846680
1.871239	5134.686035
1.871332	5097.213379
1.871425	4966.485840
1.871518	5062.269531
1.871611	4964.888184
1.871704	5047.324219
1.871797	5126.404297
1.871891	5072.327148
1.871984	5164.688477
1.872077	5074.022949
1.872170	5116.453613
1.872263	5118.957031
1.872356	5061.598145
1.872450	4964.356445
1.872543	4917.014648
1.872636	5005.972168
1.872729	4965.285156
1.872823	4891.381836
1.872916	4907.207520
1.873009	4926.349609
1.873103	4988.662598
1.873196	4961.293945
1.873289	4977.097168
1.873383	4883.344238
1.873476	4782.982422
1.873569	4941.509766
1.873663	4741.626465
1.873756	4916.697266
1.873850	4783.223633
1.873943	4862.051270
1.874037	4791.633301
1.874130	4794.177734
1.874224	4766.887207
1.874317	4915.269043
1.874411	4798.493164
1.874504	4877.241699
1.874598	4879.770020
1.874691	4912.107910
1.874785	4974.241211
1.874879	4817.814453
1.874972	4873.321289
1.875066	4707.030273
1.875160	4650.009766
1.875253	4788.243164
1.875347	4770.930664
1.875441	4816.475586
1.875534	4719.783691
1.875628	4722.331543
1.875722	4612.460449
1.875816	4780.319336
1.875909	4901.848633
1.876003	4765.562500
1.876097	4619.406738
1.876191	4691.347168
1.876285	4759.960449
1.876378	4752.589355
1.876472	4646.155762
1.876566	4787.379395
1.876660	4591.843750
1.876754	4604.307617
1.876848	4653.067871
1.876942	4609.425781
1.877036	4536.106934
1.877130	4607.943848
1.877224	4755.609375
1.877318	4573.487793
1.877412	4576.049316
1.877506	4598.387695
1.877600	4574.577637
1.877694	4514.526855
1.877788	4642.295898
1.877882	4694.256836
1.877976	4525.523926
1.878070	4626.884277
1.878165	4507.605469
1.878259	4625.395996
1.878353	4463.365723
1.878447	4663.400879
1.878541	4669.232422
1.878635	4589.521973
1.878730	4493.389648
1.878824	4393.999512
1.878918	4603.750000
1.879012	4441.904297
1.879107	4477.350586
1.879201	4571.948242
1.879295	4577.785645
1.879390	4396.333008
1.879484	4513.894043
1.879578	4417.912109
1.879673	4519.010742
1.879767	4393.505859
1.879862	4435.479980
1.879956	4520.113770
1.880050	4486.566406
1.880145	4413.651367
1.880239	4491.685547
1.880334	4395.829590
1.880428	4404.962402
1.880523	4378.019043
1.880617	4285.505859
1.880712	4356.940918
1.880807	4408.685547
1.880901	4437.472168
1.880996	4276.196777
1.881090	4367.244141
1.881185	4363.266113
1.881280	4241.381836
1.881374	4374.961426
1.881469	4472.482422
1.881564	4154.222168
1.881658	4277.931641
1.881753	4365.603027
1.881848	4364.900879
1.881943	4239.881348
1.882037	4226.115723
1.882132	4294.115723
1.882227	4231.296387
1.882322	4188.113770
1.882416	4197.247070
1.882511	4294.623047
1.882606	4225.307617
1.882701	4270.370605
1.882796	4256.616699
1.882891	4282.062500
1.882986	4255.248047
1.883081	4179.463867
1.883176	4120.027832
1.883271	4191.176270
1.883365	4236.193359
1.883461	4147.408203
1.883555	4123.903320
1.883650	4240.674316
1.883746	4083.438721
1.883841	4105.609375
1.883936	4003.874023
1.884031	4074.949219
1.884126	3937.397705
1.884221	4190.959473
1.884316	4020.849609
1.884411	4000.655762
1.884506	4006.527100
1.884602	4061.248779
1.884697	4086.645996
1.884792	4030.640869
1.884887	4209.031250
1.884982	4039.108643
1.885078	4207.677246
1.885173	4076.854004
1.885268	4105.476563
1.885363	4049.521729
1.885459	4136.677246
1.885554	4077.483887
1.885649	4164.606445
1.885745	3936.399414
1.885840	4049.516846
1.885936	4100.857422
1.886031	3992.982178
1.886126	4005.333984
1.886222	4017.681396
1.886317	3965.076904
1.886413	3798.848633
1.886508	3947.570068
1.886604	3985.885254
1.886699	3865.167725
1.886795	3971.624268
1.886890	3951.520020
1.886986	3924.934570
1.887082	3924.303467
1.887177	3836.119385
1.887273	3903.588379
1.887368	3821.918945
1.887464	3947.708984
1.887560	3823.930664
1.887655	3949.679443
1.887751	3890.731934
1.887847	3805.890869
1.887942	3714.599854
1.888038	3746.382568
1.888134	3771.680176
1.888230	3842.287109
1.888325	3789.885986
1.888421	3863.702881
1.888517	3905.141846
1.888613	3684.541260
1.888709	3745.401855
1.888804	3854.750488
1.888900	3789.463867
1.888996	3672.473389
1.889092	3810.871338
1.889188	3816.721924
1.889284	3806.414551
1.889380	3689.496094
1.889476	3698.593262
1.889572	3591.418701
1.889668	3697.403809
1.889764	3648.379395
1.889860	3776.918213
1.889956	3792.448975
1.890052	3607.894531
1.890148	3681.525635
1.890244	3735.776611
1.890340	3641.635010
1.890436	3689.424805
1.890532	3634.014893
1.890628	3646.326416
1.890725	3706.985840
1.890821	3574.249023
1.890917	3631.677734
1.891013	3643.981445
1.891109	3672.387939
1.891206	3594.496338
1.891302	3806.461914
1.891398	3561.142090
1.891495	3663.587646
1.891591	3601.841064
1.891687	3540.114502
1.891783	3571.722900
1.891880	3561.496582
1.891976	3512.672852
1.892072	3734.026855
1.892169	3546.915771
1.892265	3755.332275
1.892362	3639.000488
1.892458	3535.562500
1.892555	3557.489258
1.892651	3563.343262
1.892748	3501.730957
1.892844	3472.259033
1.892941	3510.239502
1.893037	3516.096924
1.893134	3428.847168
1.893230	3431.505859
1.893327	3559.333740
1.893423	3449.656006
1.893520	3423.433594
1.893616	3474.210205
1.893713	3486.481201
1.893810	3389.712891
1.893906	3450.089355
1.894003	3452.740479
1.894100	3481.033447
1.894197	3467.654053
1.894293	3367.761963
1.894390	3424.889160
1.894487	3417.931641
1.894584	3417.382080
1.894680	3413.630127
1.894777	3217.773438
1.894874	3300.488525
1.894971	3440.790039
1.895068	3417.834961
1.895165	3353.291260
1.895262	3349.552734
1.895358	3345.815186
1.895455	3364.466064
1.895552	3299.972168
1.895649	3446.509521
1.895746	3378.826172
1.895843	3387.871094
1.895940	3221.155518
1.896037	3332.465088
1.896134	3325.540039
1.896231	3328.199219
1.896328	3187.148193
1.896425	3266.461182
1.896523	3259.550781
1.896620	3246.258545
1.896717	3389.353027
1.896814	3315.415771
1.896911	3346.787109
1.897008	3266.500244
1.897105	3348.899902
1.897203	3268.638428
1.897300	3347.822754
1.897397	3321.781250
1.897494	3190.564453
1.897591	3266.535889
1.897689	3230.960693
1.897786	3236.812744
1.897883	3299.998535
1.897981	3388.642578
1.898078	3181.117920
1.898175	3186.973877
1.898273	3231.027100
1.898370	3259.152344
1.898468	3191.800781
1.898565	3127.652588
1.898662	3279.848633
1.898760	3241.152344
1.898857	3151.585205
1.898955	3354.578857
1.899052	3179.184082
1.899150	3248.603516
1.899247	3216.299316
1.899345	3196.716064
1.899442	3145.367676
1.899540	3151.215088
1.899638	3118.947021
1.899735	3251.820801
1.899833	3070.317139
1.899930	3199.981201
1.900028	3009.022217
1.900126	3151.348389
1.900223	3195.264160
1.900321	3121.781738
1.900419	3168.860107
1.900517	3060.518555
1.900614	3117.104492
1.900712	3129.285156
1.900810	3005.152100
1.900908	3077.566650
1.901006	3254.534180
1.901103	2997.365234
1.901201	3072.913818
1.901299	3167.442871
1.901397	3068.758301
1.901495	3115.760986
1.901593	3070.937012
1.901691	3117.924072
1.901789	3073.114014
1.901887	3034.646973
1.901984	3113.255615
1.902083	3084.284668
1.902181	2998.391113
1.902279	2937.824219
1.902377	3038.530518
1.902475	2946.363037
1.902573	3126.056152
1.902671	3018.102295
1.902769	3008.137451
1.902867	3146.662598
1.902965	2937.676270
1.903063	2971.944824
1.903161	3075.673340
1.903260	2989.932129
1.903358	2995.764648
1.903456	2970.032715
1.903554	3013.735352
1.903653	3016.405762
1.903751	3022.229980
1.903849	2961.813477
1.903947	2929.799805
1.904045	2863.111084
1.904144	2947.773438
1.904242	2988.277588
1.904341	2940.521729
1.904439	2955.804443
1.904537	2911.219482
1.904636	2923.351807
1.904734	2932.330322
1.904832	2938.156982
1.904931	2855.819580
1.905029	2997.026123
1.905128	2961.920166
1.905226	3005.503174
1.905325	2885.448242
1.905423	2853.522949
1.905522	2944.286377
1.905620	2865.185059
1.905719	3034.532227
1.905818	2883.127686
1.905916	2904.668945
1.906015	2857.055420
1.906114	2910.019287
1.906212	2868.704346
1.906311	2871.384277
1.906410	2823.806641
1.906508	2917.568604
1.906607	2785.217285
1.906706	2784.769287
1.906804	2853.379883
1.906903	2812.119873
1.907002	2987.396729
1.907101	2905.340576
1.907200	2842.132813
1.907298	2838.539063
1.907397	2819.266113
1.907496	2859.573975
1.907595	2774.468994
1.907694	2842.981445
1.907793	2795.514160
1.907892	2851.467041
1.907991	2910.534668
1.908090	2903.801270
1.908188	2759.263672
1.908288	2796.397217
1.908386	2795.947266
1.908486	2801.758057
1.908584	2851.386475
1.908684	2706.973145
1.908783	2740.955811
1.908882	2809.340576
1.908981	2749.457520
1.909080	2896.004639
1.909179	2792.349854
1.909278	2754.383301
1.909377	2750.814209
1.909477	2672.235840
1.909576	2896.800049
1.909675	2733.864258
1.909774	2789.654785
1.909873	2736.107910
1.909973	2738.790283
1.910072	2878.857910
1.910171	2719.177490
1.910271	2728.104004
1.910370	2687.093506
1.910469	2724.105713
1.910568	2658.149414
1.910668	2735.706543
1.910767	2744.622803
1.910867	2709.878906
1.910966	2737.503662
1.911065	2699.654541
1.911165	2755.323975
1.911264	2698.785645
1.911364	2798.059570
1.911463	2744.647705
1.911563	2638.300293
1.911662	2715.734863
1.911762	2718.411621
1.911862	2652.593262
1.911961	2617.924805
1.912061	2720.211670
1.912160	2660.648438
1.912260	2750.449951
1.912359	2728.230957
1.912459	2777.557861
1.912559	2714.913330
1.912659	2646.070313
1.912758	2723.366211
1.912858	2688.735840
1.912958	2753.568115
1.913057	2672.333496
1.913157	2796.177979
1.913257	2649.728760
1.913357	2742.478027
1.913457	2648.875732
1.913556	2636.030029
1.913656	2592.144531
1.913756	2672.427734
1.913856	2569.586426
1.913956	2687.081787
1.914056	2686.649170
1.914156	2661.401855
1.914256	2629.959717
1.914356	2623.334717
1.914456	2595.009033
1.914556	2637.989502
1.914656	2637.564941
1.914756	2575.162842
1.914856	2667.699463
1.914956	2676.563721
1.915056	2648.256348
1.915156	2496.083008
1.915256	2721.717041
1.915356	2603.635254
1.915456	2609.406982
1.915557	2513.045410
1.915657	2583.811768
1.915757	2660.742920
1.915857	2607.727051
1.915957	2557.821045
1.916057	2628.534180
1.916158	2526.078613
1.916258	2630.779297
1.916358	2624.174072
1.916458	2540.310547
1.916559	2601.699707
1.916659	2499.330566
1.916759	2600.862061
1.916860	2656.034912
1.916960	2572.233398
1.917061	2565.644531
1.917161	2543.623047
1.917262	2654.324707
1.917362	2607.608398
1.917462	2594.846924
1.917563	2557.409912
1.917663	2594.011475
1.917764	2670.692139
1.917864	2565.425049
1.917965	2565.011963
1.918066	2576.928955
1.918166	2521.038818
1.918267	2499.062500
1.918367	2584.927246
1.918468	2538.303955
1.918569	2513.255371
1.918669	2552.884033
1.918770	2564.788818
1.918871	2576.689697
1.918971	2570.118896
1.919072	2615.867432
1.919173	2553.906250
1.919273	2547.342041
1.919374	2516.171875
1.919475	2521.917480
1.919576	2552.261719
1.919677	2447.316895
1.919777	2453.071045
1.919878	2600.205322
1.919979	2584.421387
1.920080	2458.031006
1.920181	2506.788086
1.920282	2530.956787
1.920383	2555.117432
1.920484	2499.436035
1.920585	2569.645020
1.920686	2633.692139
1.920787	2470.606934
1.920888	2574.540771
1.920989	2386.972900
1.921090	2521.562500
1.921191	2472.082764
1.921292	2493.150879
1.921393	2590.864990
1.921494	2541.397949
1.921595	2516.467529
1.921696	2528.320801
1.921798	2506.464600
1.921899	2404.960693
1.922000	2502.594238
1.922101	2551.193604
1.922202	2391.550293
1.922304	2532.001953
1.922405	2485.676270
1.922506	2546.489746
1.922607	2500.176758
1.922709	2496.714355
1.922810	2477.956787
1.922911	2419.442139
1.923013	2449.634766
1.923114	2449.240234
1.923216	2454.960205
1.923317	2497.359131
1.923418	2402.213135
1.923520	2542.390869
1.923621	2407.549805
1.923723	2456.038330
1.923824	2376.231445
1.923926	2467.462158
1.924027	2531.184082
1.924129	2451.403320
1.924230	2579.205566
1.924332	2475.028320
1.924433	2471.578125
1.924535	2336.943115
1.924637	2455.530273
1.924738	2519.181641
1.924840	2494.380859
1.924942	2393.366211
1.925043	2484.432129
1.925145	2520.606445
1.925247	2495.821289
1.925348	2434.480957
1.925450	2455.413574
1.925552	2430.650635
1.925654	2399.804688
1.925756	2478.586670
1.925857	2469.053955
1.925959	2496.052002
1.926061	2437.823730
1.926163	2443.516846
1.926265	2415.740723
1.926367	2476.191650
1.926468	2457.543701
1.926570	2533.173340
1.926672	2456.751709
1.926774	2416.835449
1.926876	2498.513916
1.926978	2400.861328
1.927080	2385.281494
1.927182	2445.658936
1.927284	2390.588135
1.927386	2457.019287
1.927488	2386.781250
1.927591	2529.094482
1.927693	2489.223633
1.927795	2422.049316
1.927897	2330.619141
1.927999	2433.405518
1.928101	2408.743896
1.928203	2390.156738
1.928306	2380.673340
1.928408	2425.772949
1.928510	2422.350342
1.928612	2364.366455
1.928715	2454.907959
1.928817	2402.997803
1.928919	2363.223633
1.929022	2411.311279
1.929124	2398.807373
1.929226	2458.987061
1.929329	2437.395996
1.929431	2349.210449
1.929533	2400.288330
1.929636	2463.455078
1.929738	2426.747559
1.929841	2384.000977
1.929943	2416.890625
1.930046	2392.305908
1.930148	2397.968262
1.930251	2442.933105
1.930353	2327.667480
1.930456	2436.100830
1.930558	2332.961182
1.930661	2368.843018
1.930764	2416.797119
1.930866	2488.899902
1.930969	2325.417480
1.931072	2409.589600
1.931174	2333.724854
1.931277	2426.924316
1.931380	2348.062988
1.931482	2293.367920
1.931585	2392.562744
1.931688	2422.343262
1.931791	2379.726807
1.931893	2264.748779
1.931996	2318.656494
1.932099	2363.502930
1.932202	2363.121826
1.932305	2347.672363
1.932407	2377.426025
1.932510	2343.902832
1.932613	2400.757568
1.932716	2313.029541
1.932819	2324.701904
1.932922	2363.467285
1.933025	2360.075928
1.933128	2383.773926
1.933231	2386.398926
1.933334	2346.899414
1.933437	2511.980713
1.933540	2340.126953
1.933643	2369.823486
1.933746	2306.296387
1.933849	2447.226318
1.933953	2326.594238
1.934056	2425.399170
1.934159	2286.779541
1.934262	2364.527344
1.934365	2313.078125
1.934468	2402.810547
1.934572	2477.499023
1.934675	2393.028320
1.934778	2389.640381
1.934881	2380.250244
1.934985	2280.830322
1.935088	2268.460205
1.935191	2391.099609
1.935295	2351.718750
1.935398	2306.352051
1.935501	2422.928467
1.935605	2290.617432
1.935708	2395.167725
1.935812	2352.820313
1.935915	2343.450684
1.936018	2310.114014
1.936122	2402.610352
1.936225	2324.345459
1.936329	2371.887451
1.936432	2311.618408
1.936536	2299.270264
1.936639	2394.687012
1.936743	2355.393311
1.936847	2316.112305
1.936950	2288.811768
1.937054	2384.168213
1.937157	2419.675049
1.937261	2278.733154
1.937365	2230.525879
1.937468	2337.788086
1.937572	2322.465820
1.937676	2357.953613
1.937779	2339.645020
1.937883	2231.715088
1.937987	2386.683838
1.938091	2425.124756
1.938195	2373.969482
1.938298	2367.615234
1.938402	2456.788330
1.938506	2351.928223
1.938610	2279.927979
1.938714	2228.836914
1.938818	2374.656006
1.938922	2395.152344
1.939026	2287.404053
1.939130	2239.326416
1.939234	2361.198975
1.939337	2456.204590
1.939442	2315.731934
1.939546	2392.834961
1.939650	2300.087891
1.939754	2386.105225
1.939858	2391.677002
1.939962	2331.732422
1.940066	2230.122314
1.940170	2301.210205
1.940274	2297.862305
1.940378	2232.019043
1.940482	2228.683350
1.940587	2302.700439
1.940691	2216.065918
1.940795	2275.190674
1.940899	2325.375000
1.941004	2292.295410
1.941108	2309.761475
1.941212	2395.582275
1.941316	2264.440674
1.941421	2293.787354
1.941525	2278.563721
1.941629	2435.620117
1.941734	2221.402344
1.941838	2241.829102
1.941943	2330.532227
1.942047	2309.377686
1.942152	2243.711914
1.942256	2326.436768
1.942360	2248.921631
1.942465	2269.323730
1.942569	2316.412842
1.942674	2396.106934
1.942778	2226.715332
1.942883	2395.333740
1.942988	2350.486572
1.943092	2361.961426
1.943197	2257.872070
1.943301	2269.358154
1.943406	2343.045166
1.943511	2313.050537
1.943616	2306.754883
1.943720	2401.125000
1.943825	2264.567383
1.943930	2400.349854
1.944034	2299.347656
1.944139	2269.388672
1.944244	2301.563721
1.944349	2360.348877
1.944453	2291.948730
1.944558	2262.010010
1.944663	2388.770020
1.944768	2361.781250
1.944873	2296.380127
1.944978	2313.739258
1.945083	2162.686768
1.945188	2253.912109
1.945293	2383.503906
1.945397	2211.841553
1.945503	2273.488770
1.945608	2228.840332
1.945712	2325.884277
1.945818	2363.873779
1.945922	2257.267822
1.946028	2277.554688
1.946133	2312.583740
1.946238	2332.855225
1.946343	2320.683350
1.946448	2255.446289
1.946553	2252.134277
1.946658	2328.401611
1.946764	2348.653809
1.946869	2324.703613
1.946974	2283.085449
1.947079	2312.171143
1.947184	2297.072998
1.947290	2323.202393
1.947395	2346.379395
1.947500	2298.904053
1.947606	2298.532715
1.947711	2404.094971
1.947816	2280.137939
1.947922	2338.602539
1.948027	2226.460693
1.948133	2331.966064
1.948238	2466.839111
1.948343	2248.900146
1.948449	2333.775635
1.948554	2274.623047
1.948660	2241.934326
1.948765	2320.893799
1.948871	2435.076416
1.948976	2311.333740
1.949082	2246.359131
1.949187	2307.651367
1.949293	2342.504150
1.949399	2262.881104
1.949504	2347.616699
1.949610	2241.611816
1.949716	2320.456299
1.949821	2343.546387
1.949927	2161.344971
1.950033	2254.824707
1.950138	2248.597168
1.950244	2327.376465
1.950350	2288.901123
1.950456	2411.602295
1.950562	2264.723389
1.950667	2246.781738
1.950773	2316.710938
1.950879	2278.268066
1.950985	2219.342285
1.951091	2324.370850
1.951197	2318.141357
1.951303	2294.355225
1.951409	2267.650635
1.951514	2220.475830
1.951620	2302.018555
1.951726	2363.062988
1.951832	2312.971436
1.951939	2221.964844
1.952044	2209.913330
1.952150	2235.860596
1.952257	2340.699219
1.952363	2249.746826
1.952469	2261.068604
1.952575	2310.356934
1.952681	2342.107178
1.952787	2341.728760
1.952893	2277.124023
1.953000	2329.296631
1.953106	2328.920166
1.953212	2205.989014
1.953318	2261.064941
1.953424	2342.376709
1.953531	2257.417969
1.953637	2324.123047
1.953743	2242.110352
1.953850	2343.778076
1.953956	2299.679199
1.954062	2308.050293
1.954169	2357.210693
1.954275	2464.620605
1.954382	2365.187256
1.954488	2239.575195
1.954594	2344.040039
1.954701	2387.332031
1.954807	2299.618896
1.954914	2307.978516
1.955020	2234.856201
1.955127	2315.960938
1.955234	2237.042969
1.955340	2347.206543
1.955447	2259.584717
1.955553	2253.404053
1.955660	2328.625732
1.955767	2290.462646
1.955873	2310.435791
1.955980	2254.853516
1.956087	2300.973145
1.956193	2352.887695
1.956300	2224.716797
1.956407	2247.588135
1.956514	2348.843506
1.956620	2293.308350
1.956727	2298.742432
1.956834	2341.900635
1.956941	2309.605469
1.957048	2349.846680
1.957154	2343.665771
1.957261	2302.685303
1.957368	2282.015625
1.957475	2214.965820
1.957582	2287.075195
1.957689	2295.400146
1.957796	2219.687256
1.957903	2355.501221
1.958010	2320.358398
1.958117	2380.806885
1.958224	2328.295898
1.958331	2327.919434
1.958438	2292.803467
1.958545	2356.111572
1.958652	2378.882813
1.958759	2233.820557
1.958867	2239.245605
1.958974	2241.776123
1.959081	2328.177979
1.959188	2371.176758
1.959295	2318.751465
1.959403	2269.233887
1.959510	2338.233643
1.959617	2326.296143
1.959724	2242.129150
1.959832	2250.433105
1.959939	2250.069092
1.960046	2197.722412
1.960154	2307.091064
1.960261	2352.909912
1.960368	2312.117920
1.960476	2340.604736
1.960583	2340.226074
1.960690	2345.617920
1.960798	2325.045898
1.960905	2301.596191
1.961013	2309.875000
1.961120	2372.933350
1.961228	2355.252686
1.961336	2305.872070
1.961443	2328.553955
1.961551	2342.584473
1.961658	2336.443604
1.961766	2364.870361
1.961874	2298.247803
1.961981	2326.671387
1.962089	2386.755615
1.962197	2331.675781
1.962304	2342.811279
1.962412	2307.900146
1.962520	2379.457031
1.962627	2358.935059
1.962735	2280.893555
1.962843	2220.132324
1.962951	2349.164063
1.963058	2202.164795
1.963166	2282.292236
1.963274	2264.679443
1.963382	2310.288818
1.963490	2269.692627
1.963598	2286.560791
1.963706	2337.888672
1.963814	2340.381836
1.963922	2302.677979
1.964030	2348.236816
1.964138	2276.100830
1.964246	2287.211670
1.964354	2278.233398
1.964462	2424.176025
1.964570	2309.048340
1.964678	2420.523682
1.964786	2345.578125
1.964894	2307.927734
1.965002	2330.486328
1.965110	2310.046875
1.965219	2255.226563
1.965327	2432.500000
1.965435	2326.113525
1.965543	2400.206299
1.965651	2302.450684
1.965760	2345.027100
1.965868	2333.196289
1.965976	2284.158691
1.966084	2381.093262
1.966193	2354.955078
1.966301	2308.798340
1.966410	2371.355713
1.966518	2296.610840
1.966626	2304.817871
1.966735	2198.657715
1.966843	2326.940918
1.966952	2255.109619
1.967060	2231.882813
1.967169	2340.097412
1.967277	2356.859375
1.967386	2313.632813
1.967494	2284.699463
1.967603	2401.401611
1.967711	2369.608398
1.967820	2366.370117
1.967928	2274.658203
1.968037	2291.411377
1.968146	2233.978271
1.968254	2342.016846
1.968363	2241.811523
1.968472	2327.000000
1.968580	2346.582031
1.968689	2220.767334
1.968798	2263.162598
1.968907	2268.495850
1.969015	2253.881592
1.969124	2296.250732
1.969233	2315.818359
1.969342	2244.242676
1.969451	2354.934326
1.969560	2303.305176
1.969669	2402.564453
1.969777	2328.174805
1.969886	2350.563477
1.969995	2321.730225
1.970104	2295.750977
1.970213	2229.959473
1.970322	2306.383057
1.970431	2300.322754
1.970540	2345.437256
1.970649	2222.830322
1.970758	2324.783447
1.970868	2273.258545
1.970977	2278.572510
1.971086	2255.478271
1.971195	2323.277588
1.971304	2376.856201
1.971413	2282.775146
1.971522	2290.921875
1.971632	2265.005615
1.971741	2315.720703
1.971850	2258.596924
1.971959	2283.763916
1.972068	2280.557373
1.972178	2345.417236
1.972287	2274.147217
1.972396	2296.459961
1.972506	2352.781494
1.972615	2241.865723
1.972724	2349.185303
1.972834	2204.306641
1.972943	2246.441895
1.973053	2214.921875
1.973162	2291.024902
1.973272	2259.507568
1.973381	2366.719727
1.973491	2253.114258
1.973600	2337.651855
1.973710	2297.658203
1.973819	2362.356934
1.973929	2203.566162
1.974039	2225.835205
1.974148	2375.347656
1.974258	2304.279297
1.974367	2309.559570
1.974477	2306.358887
1.974587	2294.681396
1.974697	2257.577881
1.974806	2322.187988
1.974916	2237.073975
1.975026	2267.776855
1.975135	2284.351318
1.975245	2329.152588
1.975355	2289.256592
1.975465	2317.108398
1.975575	2316.732910
1.975685	2231.715820
1.975794	2347.012207
1.975904	2369.195557
1.976014	2320.871094
1.976124	2371.247070
1.976234	2300.385254
1.976344	2353.566406
1.976454	2347.548584
1.976564	2338.714844
1.976674	2321.432129
1.976784	2332.322998
1.976894	2295.332275
1.977004	2311.855469
1.977114	2148.184814
1.977224	2139.391602
1.977335	2285.400391
1.977445	2321.613037
1.977555	2366.254395
1.977665	2351.804932
1.977775	2303.607666
1.977885	2297.609619
1.977996	2308.484131
1.978106	2305.298584
1.978216	2335.844482
1.978327	2324.224121
1.978437	2211.448242
1.978547	2292.565674
1.978658	2292.193848
1.978768	2291.822021
1.978878	2294.258545
1.978989	2240.540283
1.979099	2299.129150
1.979210	2220.166260
1.979320	2385.379639
1.979430	2312.040039
1.979541	2311.665039
1.979651	2274.825439
1.979762	2187.516846
1.979872	2293.716064
1.979983	2391.469971
1.980094	2197.665283
1.980204	2295.402832
1.980315	2331.459473
1.980425	2297.459961
1.980536	2364.319092
1.980647	2383.541748
1.980757	2282.340088
1.980868	2262.370117
1.980979	2345.988281
1.981090	2312.019043
1.981200	2219.290283
1.981311	2235.718994
1.981422	2238.154053
1.981533	2358.072266
1.981644	2209.459961
1.981754	2183.934570
1.981865	2312.190674
1.981976	2281.065918
1.982087	2202.436523
1.982198	2218.846436
1.982309	2319.072510
1.982420	2265.617676
1.982531	2290.388428
1.982642	2234.162842
1.982753	2289.645264
1.982864	2241.813232
1.982975	2311.232910
1.983086	2369.466553
1.983197	2246.302734
1.983308	2393.807617
1.983419	2245.573730
1.983530	2273.100098
1.983642	2219.747314
1.983753	2275.150635
1.983864	2232.965576
1.983975	2204.730469
1.984086	2246.174805
1.984198	2315.469482
1.984309	2253.803467
1.984420	2217.226807
1.984532	2202.941650
1.984643	2213.722412
1.984754	2324.727295
1.984865	2293.729736
1.984977	2251.609375
1.985088	2284.636963
1.985200	2314.871338
1.985311	2197.657959
1.985422	2294.649902
1.985534	2180.258789
1.985645	2266.100098
1.985757	2143.410400
1.985868	2257.025635
1.985980	2281.671387
1.986091	2328.538574
1.986203	2183.692383
1.986315	2244.448975
1.986426	2216.311279
1.986538	2246.497070
1.986650	2226.697266
1.986761	2273.527344
1.986873	2231.525391
1.986985	2281.114502
1.987096	2289.067871
1.987208	2244.309326
1.987320	2210.660156
1.987432	2240.807129
1.987543	2234.897705
1.987655	2198.493896
1.987767	2167.645508
1.987879	2233.809082
1.987991	2283.324707
1.988103	2307.888916
1.988214	2213.329834
1.988326	2284.981934
1.988438	2267.995361
1.988550	2325.771484
1.988662	2234.038818
1.988774	2217.068848
1.988886	2222.243408
1.988998	2138.873291
1.989110	2210.455566
1.989222	2182.435547
1.989334	2309.300049
1.989447	2242.560547
1.989559	2253.255127
1.989671	2225.246338
1.989783	2172.372070
1.989895	2202.416260
1.990007	2287.709473
1.990119	2281.812744
1.990232	2264.869873
1.990344	2283.833008
1.990456	2275.178467
1.990568	2252.723389
1.990681	2191.632080
1.990793	2196.795410
1.990905	2166.085693
1.991018	2182.287109
1.991130	2358.473145
1.991242	2286.381836
1.991355	2211.556396
1.991467	2227.739746
1.991580	2246.674316
1.991692	2224.259521
1.991805	2234.921143
1.991917	2171.185791
1.992030	2212.155762
1.992142	2192.515381
1.992255	2222.452637
1.992367	2213.831055
1.992480	2133.632080
1.992592	2237.885010
1.992705	2157.708008
1.992818	2168.364258
1.992930	2231.291260
1.993043	2173.161133
1.993156	2277.322754
1.993269	2106.456055
1.993381	2240.838867
1.993494	2188.242676
1.993607	2223.618896
1.993720	2204.020264
1.993832	2181.680176
1.993945	2178.578369
1.994058	2227.666748
1.994171	2177.869873
1.994284	2207.720947
1.994397	2190.889160
1.994510	2228.963379
1.994623	2154.497314
1.994736	2236.470947
1.994848	2227.876221
1.994962	2271.406006
1.995075	2207.952393
1.995188	2139.034424
1.995301	2163.363770
1.995414	2283.636230
1.995527	2231.185547
1.995640	2255.487793
1.995753	2203.058838
1.995866	2260.233643
1.995979	2180.428467
1.996092	2171.857422
1.996206	2223.532715
1.996319	2206.743652
1.996432	2241.971680
1.996545	2208.762939
1.996659	2178.301514
1.996772	2169.738770
1.996885	2158.443115
1.996999	2201.855713
1.997112	2113.984619
1.997225	2214.811035
1.997339	2135.167969
1.997452	2143.020996
1.997565	2131.740479
1.997679	2172.381836
1.997792	2180.224854
1.997906	2106.115234
1.998019	2141.278320
1.998133	2269.276611
1.998246	2165.154785
1.998360	2104.744873
1.998473	2205.391846
1.998587	2114.976074
1.998700	2199.217285
1.998814	2136.112793
1.998928	2075.756348
1.999041	2200.871094
1.999155	2135.070068
1.999269	1982.047852
1.999382	2134.375244
1.999496	2082.244385
1.999610	2166.380859
1.999724	2144.231689
1.999838	2053.986816
1.999951	2108.125977
2.000065	2211.265869
2.000179	2186.400879
2.000293	2150.654541
2.000407	2139.416748
2.000521	2133.625732
2.000635	2119.673340
2.000748	2225.430664
2.000862	2192.427002
2.000976	2156.714111
2.001091	2169.959229
2.001204	2158.730713
2.001318	2144.787598
2.001432	2084.644287
2.001547	2068.000000
2.001661	2181.778809
2.001775	2099.925781
2.001889	2145.758545
2.002003	2161.703369
2.002117	1949.560669
2.002231	2093.128906
2.002346	2125.360840
2.002460	2135.870361
2.002574	2165.371094
2.002688	2184.010010
2.002802	2020.897461
2.002917	2099.221436
2.003031	2239.889648
2.003145	2171.742676
2.003260	2138.858887
2.003374	2133.089600
2.003489	2124.612305
2.003603	2086.333008
2.003717	2083.284180
2.003832	2112.739990
2.003946	2106.979492
2.004061	2133.713867
2.004175	2084.634766
2.004290	2043.692017
2.004404	2108.313477
2.004519	2153.972168
2.004633	2102.215576
2.004748	2120.809082
2.004862	2109.645020
2.004977	2163.385986
2.005092	2135.995605
2.005206	2089.690674
2.005321	2138.002686
2.005436	2040.365356
2.005550	2167.028320
2.005665	2072.119629
2.005780	2106.896973
2.005895	2052.539551
2.006010	2135.913574
2.006124	2070.769531
2.006239	2094.726807
2.006354	2105.181152
2.006469	2077.853027
2.006584	2101.797119
2.006699	2069.083008
2.006814	2068.745850
2.006928	2108.860107
2.007043	2057.286621
2.007159	2097.389404
2.007273	2070.093262
2.007388	2040.110962
2.007504	2031.694824
2.007618	2133.739990
2.007734	2103.761963
2.007849	2079.179932
2.007964	2154.239258
2.008079	1973.500122
2.008194	2107.774414
2.008309	2032.069458
2.008425	2093.632324
2.008540	1982.976074
2.008655	2036.456177
2.008770	2122.195557
2.008885	2116.470947
2.009001	2075.793213
2.009116	2070.078125
2.009231	2005.229126
2.009346	2112.403809
2.009462	2114.746338
2.009577	2033.801880
2.009693	2054.959961
2.009808	2070.739746
2.009923	2070.402100
2.010039	2021.736084
2.010154	2077.780273
2.010270	2074.757568
2.010386	2087.837158
2.010501	1956.021973
2.010617	2033.501953
2.010732	2132.414795
2.010848	2081.112061
2.010963	2008.374512
2.011079	2075.071289
2.011194	2018.441650
2.011310	2028.832886
2.011426	2004.385010
2.011541	2004.058105
2.011657	2019.803955
2.011773	2091.790039
2.011889	2043.246338
2.012004	1879.587158
2.012120	2023.840576
2.012236	1994.067871
2.012352	2007.123413
2.012468	2012.147461
2.012583	2030.546265
2.012699	2070.337891
2.012815	2051.279053
2.012931	2032.226685
2.013047	2013.180298
2.013163	1991.466919
2.013279	2009.850708
2.013395	1964.094849
2.013511	2003.851318
2.013627	1968.796631
2.013743	2024.564941
2.013859	1984.177124
2.013975	2002.543823
2.014091	2015.565186
2.014208	1980.536865
2.014324	2041.594971
2.014440	1857.147949
2.014556	1846.173340
2.014672	2003.251343
2.014788	2008.258423
2.014905	1887.934814
2.015021	1919.620361
2.015137	1972.621216
2.015254	2049.592041
2.015370	1947.993774
2.015486	1947.675781
2.015603	1979.325562
2.015719	1979.002441
2.015835	2021.288940
2.015952	2012.970947
2.016068	1935.437866
2.016185	1993.681274
2.016301	1998.678589
2.016418	1979.725830
2.016534	2011.328491
2.016651	2000.359863
2.016767	1938.862061
2.016884	1970.455688
2.017000	1916.958984
2.017117	1969.812378
2.017234	1857.859619
2.017350	1862.871216
2.017467	2016.673828
2.017583	1963.213013
2.017700	2010.703003
2.017817	2034.276123
2.017934	1869.316650
2.018050	1903.524292
2.018167	1998.772339
2.018284	1892.286743
2.018401	1897.284790
2.018517	2016.364990
2.018634	2050.520508
2.018751	2026.315308
2.018868	1938.474609
2.018985	1954.066284
2.019102	1990.860352
2.019219	1934.874390
2.019336	1921.307983
2.019453	1942.191284
2.019570	1872.994385
2.019687	1960.098267
2.019804	1912.107788
2.019921	1985.937012
2.020038	1935.310425
2.020155	1900.582642
2.020272	1953.204468
2.020390	1937.008179
2.020507	2000.189819
2.020624	1939.020630
2.020741	1943.993652
2.020858	1859.053345
2.020976	1877.257813
2.021093	1874.307373
2.021210	1868.714844
2.021327	1955.619507
2.021445	1950.015381
2.021562	1830.812744
2.021679	1901.832275
2.021797	1949.059448
2.021914	1869.523804
2.022031	1922.021118
2.022149	1892.670166
2.022266	1947.785645
2.022384	1844.552368
2.022501	1910.211182
2.022619	1888.795166
2.022736	1891.123901
2.022854	2020.033691
2.022971	1832.498535
2.023089	1913.922974
2.023206	1863.529419
2.023324	1855.318604
2.023442	1873.460083
2.023559	1925.844482
2.023677	1862.311157
2.023795	1901.511719
2.023912	1953.865723
2.024030	1856.132202
2.024148	2011.139282
2.024266	1863.421143
2.024384	1902.589355
2.024501	1857.549683
2.024619	1886.183228
2.024737	1843.791138
2.024855	1848.749146
2.024973	1864.223022
2.025091	1903.352295
2.025208	1916.183594
2.025326	1900.101685
2.025445	1860.376221
2.025563	1896.853027
2.025681	1815.112305
2.025798	1888.353516
2.025917	1872.289063
2.026035	1908.739868
2.026153	1845.425903
2.026271	1936.986572
2.026389	1881.561279
2.026507	1841.896729
2.026625	1886.192383
2.026743	1878.015137
2.026861	1877.707886
2.026980	1838.069702
2.027098	1848.255493
2.027216	1897.756104
2.027334	1834.546875
2.027453	1763.497192
2.027571	1820.847046
2.027689	1914.850952
2.027808	1825.489380
2.027926	1793.766968
2.028044	1877.256104
2.028163	1824.593384
2.028281	1756.243652
2.028400	1858.016235
2.028518	1860.328735
2.028637	1826.015381
2.028755	1828.332153
2.028874	1786.189575
2.028992	1798.971191
2.029111	1827.434570
2.029229	1730.420166
2.029348	1808.541992
2.029467	1769.049927
2.029585	1813.175293
2.029704	1883.408325
2.029823	1783.852051
2.029941	1801.839600
2.030060	1811.988281
2.030179	1746.429077
2.030298	1824.445557
2.030416	1821.537231
2.030535	1761.226807
2.030654	1729.632935
2.030773	1844.118042
2.030892	1796.873047
2.031011	1778.326294
2.031129	1751.964233
2.031248	1814.237183
2.031367	1774.846680
2.031486	1852.730225
2.031605	1787.292358
2.031724	1779.184814
2.031843	1810.147705
2.031962	1773.393921
2.032081	1819.969604
2.032200	1757.193604
2.032319	1814.167969
2.032439	1696.762939
2.032557	1758.932373
2.032677	1711.816406
2.032796	1695.929321
2.032915	1763.269531
2.033034	1822.786865
2.033154	1767.891602
2.033273	1780.599121
2.033392	1715.332642
2.033511	1702.058838
2.033631	1743.350220
2.033750	1735.271484
2.033869	1734.987183
2.033989	1750.284180
2.034108	1708.454346
2.034227	1715.962524
2.034347	1668.960815
2.034466	1793.255005
2.034586	1691.766602
2.034705	1758.941406
2.034825	1719.744873
2.034944	1654.626587
2.035064	1747.704712
2.035183	1765.566528
2.035303	1713.433594
2.035423	1762.396118
2.035542	1661.045288
2.035662	1671.136719
2.035781	1735.624878
2.035901	1704.259766
2.036021	1672.904785
2.036140	1747.717651
2.036260	1695.655518
2.036380	1762.674927
2.036500	1708.039307
2.036619	1782.797241
2.036739	1728.176147
2.036859	1663.226196
2.036979	1797.438110
2.037099	1748.012817
2.037219	1680.505981
2.037339	1757.779663
2.037459	1682.539551
2.037578	1674.511353
2.037699	1775.001099
2.037818	1642.963013
2.037939	1707.264893
2.038059	1673.413330
2.038178	1634.408936
2.038299	1703.843506
2.038419	1690.658325
2.038539	1664.573730
2.038659	1628.176392
2.038779	1622.749634
2.038899	1648.278076
2.039020	1720.220947
2.039140	1634.844360
2.039260	1613.950684
2.039380	1634.308105
2.039500	1610.843994
2.039621	1685.310669
2.039741	1723.681763
2.039861	1713.094604
2.039982	1684.481445
2.040102	1689.355591
2.040222	1663.330200
2.040343	1647.610962
2.040463	1595.861328
2.040584	1644.496948
2.040704	1664.812134
2.040825	1654.248169
2.040945	1682.271851
2.041066	1671.708374
2.041186	1692.005493
2.041307	1588.887329
2.041427	1696.591431
2.041548	1698.883179
2.041668	1647.209473
2.041789	1639.231201
2.041910	1602.997437
2.042031	1618.145264
2.042151	1566.518433
2.042272	1638.155273
2.042393	1691.798096
2.042513	1596.548828
2.042634	1657.879883
2.042755	1680.701294
2.042876	1698.384155
2.042997	1598.065918
2.043118	1618.321167
2.043238	1715.497803
2.043359	1676.758423
2.043480	1668.792969
2.043601	1612.132813
2.043722	1616.993286
2.043843	1624.414307
2.043964	1649.765015
2.044085	1608.512939
2.044206	1662.027832
2.044327	1684.799316
2.044448	1671.722412
2.044569	1597.218140
2.044690	1627.666626
2.044812	1558.311646
2.044933	1611.781738
2.045054	1614.075073
2.045175	1652.173096
2.045296	1572.630981
2.045418	1646.517090
2.045539	1595.120972
2.045660	1666.423218
2.045781	1638.039551
2.045903	1602.000244
2.046024	1604.291626
2.046145	1662.774414
2.046267	1619.087280
2.046388	1649.461426
2.046510	1631.319946
2.046631	1636.156982
2.046753	1681.825806
2.046874	1607.551025
2.046995	1599.633179
2.047117	1525.396362
2.047239	1563.401855
2.047360	1626.894775
2.047482	1647.024048
2.047603	1690.089111
2.047725	1595.508179
2.047847	1531.538086
2.047968	1551.669556
2.048090	1615.101563
2.048212	1563.894897
2.048333	1652.770386
2.048455	1606.666748
2.048577	1606.402710
2.048699	1641.774048
2.048820	1621.144531
2.048942	1623.422607
2.049064	1554.464233
2.049186	1597.451782
2.049308	1566.669678
2.049430	1576.583618
2.049551	1601.749146
2.049674	1616.738037
2.049795	1547.848389
2.049917	1481.522583
2.050040	1532.094849
2.050161	1531.842896
2.050283	1562.070435
2.050405	1569.432251
2.050528	1574.252441
2.050650	1596.841919
2.050772	1497.586304
2.050894	1588.703247
2.051016	1611.278931
2.051138	1578.032593
2.051260	1501.674805
2.051383	1615.556641
2.051505	1602.612061
2.051627	1564.317993
2.051749	1526.036621
2.051872	1551.130859
2.051994	1517.932373
2.052116	1525.283691
2.052239	1542.765747
2.052361	1600.767822
2.052484	1605.569336
2.052606	1509.088257
2.052728	1572.130249
2.052851	1516.185303
2.052973	1581.736206
2.053096	1508.095459
2.053218	1517.967163
2.053341	1560.719360
2.053463	1471.943604
2.053586	1555.148438
2.053709	1486.629028
2.053831	1552.108887
2.053954	1438.118286
2.054076	1470.733032
2.054199	1510.916870
2.054322	1510.668335
2.054445	1523.048584
2.054567	1469.765137
2.054690	1499.822754
2.054813	1451.609741
2.054936	1489.232666
2.055058	1519.271973
2.055181	1481.172607
2.055304	1546.523560
2.055427	1551.313965
2.055550	1561.146729
2.055673	1583.584473
2.055796	1452.220581
2.055919	1515.001465
2.056042	1476.946289
2.056165	1459.063354
2.056288	1491.577393
2.056411	1476.216919
2.056534	1498.642456
2.056657	1475.730957
2.056780	1447.791016
2.056903	1538.182007
2.057026	1507.723999
2.057149	1404.292847
2.057273	1484.581299
2.057396	1418.925415
2.057519	1436.299561
2.057642	1405.883057
2.057765	1433.311890
2.057889	1453.189209
2.058012	1483.114990
2.058136	1523.084106
2.058259	1502.729858
2.058382	1379.369263
2.058506	1489.674316
2.058629	1426.636841
2.058753	1438.958252
2.058876	1426.166870
2.058999	1463.588623
2.059123	1345.376099
2.059246	1445.539063
2.059370	1475.411377
2.059494	1399.904663
2.059617	1407.199097
2.059741	1462.142456
2.059864	1426.795776
2.059988	1459.153564
2.060112	1328.563477
2.060235	1496.267334
2.060359	1373.231812
2.060483	1488.257813
2.060606	1508.053101
2.060730	1442.683472
2.060854	1412.394775
2.060978	1447.215576
2.061101	1441.970215
2.061225	1469.265625
2.061349	1436.489746
2.061473	1476.287964
2.061597	1408.496826
2.061721	1390.755127
2.061845	1388.024902
2.061969	1450.309448
2.062093	1400.067871
2.062217	1482.327515
2.062341	1437.095825
2.062465	1411.869995
2.062589	1394.147949
2.062713	1406.408325
2.062837	1481.105957
2.062961	1365.988770
2.063085	1443.165161
2.063210	1385.509644
2.063334	1380.289185
2.063458	1429.973389
2.063582	1454.689453
2.063706	1449.459961
2.063831	1406.816895
2.063955	1439.006104
2.064079	1388.898193
2.064204	1383.682861
2.064328	1400.903564
2.064452	1448.026245
2.064577	1417.884644
2.064701	1365.329834
2.064825	1372.577759
2.064950	1394.767212
2.065074	1404.498169
2.065199	1411.735962
2.065324	1433.907837
2.065448	1361.489868
2.065573	1383.662720
2.065697	1353.576172
2.065822	1338.426147
2.065946	1395.414795
2.066071	1367.828003
2.066195	1439.712280
2.066320	1404.668701
2.066445	1352.236572
2.066570	1294.851074
2.066694	1389.063965
2.066819	1386.350220
2.066944	1319.051025
2.067069	1366.023193
2.067194	1308.682617
2.067318	1343.226563
2.067443	1410.031006
2.067568	1362.639526
2.067693	1352.488159
2.067818	1391.964355
2.067943	1386.772949
2.068068	1413.828491
2.068193	1421.035034
2.068318	1334.015015
2.068443	1286.690552
2.068568	1390.586182
2.068693	1296.179077
2.068818	1352.957886
2.068943	1357.689575
2.069068	1364.896729
2.069193	1406.775513
2.069319	1371.874878
2.069444	1384.027832
2.069569	1371.421875
2.069694	1207.839966
2.069819	1323.950195
2.069945	1378.165283
2.070070	1370.516113
2.070195	1377.710083
2.070321	1384.901733
2.070446	1364.891846
2.070571	1372.083130
2.070697	1329.835571
2.070822	1366.687012
2.070948	1363.990234
2.071073	1294.588501
2.071199	1368.479980
2.071324	1358.374878
2.071450	1326.048706
2.071575	1340.643311
2.071701	1345.358887
2.071826	1320.455200
2.071952	1332.575684
2.072078	1364.430786
2.072203	1356.804565
2.072329	1282.585083
2.072454	1311.966309
2.072580	1370.926147
2.072706	1249.900513
2.072832	1323.640381
2.072958	1281.525635
2.073083	1301.026367
2.073209	1322.984253
2.073335	1300.596313
2.073461	1366.878052
2.073587	1339.565308
2.073713	1297.489380
2.073838	1319.429565
2.073964	1274.909546
2.074090	1301.767700
2.074217	1286.790039
2.074342	1284.117310
2.074469	1313.420044
2.074594	1177.947998
2.074721	1283.480469
2.074847	1310.310303
2.074973	1278.140137
2.075099	1280.386353
2.075225	1267.888916
2.075351	1319.270874
2.075477	1333.790649
2.075603	1230.421021
2.075730	1225.306519
2.075856	1357.680298
2.075982	1269.086060
2.076109	1317.962280
2.076235	1199.957153
2.076361	1307.712402
2.076488	1255.981201
2.076614	1243.510010
2.076741	1231.042969
2.076867	1297.039795
2.076993	1299.276733
2.077120	1225.530029
2.077246	1240.031128
2.077373	1296.181763
2.077499	1239.620850
2.077626	1256.561890
2.077753	1344.519165
2.077879	1324.707642
2.078006	1241.248901
2.078132	1331.612671
2.078259	1235.943237
2.078386	1279.784912
2.078512	1308.932373
2.078639	1215.760132
2.078766	1235.125366
2.078892	1244.702515
2.079019	1224.936523
2.079146	1241.845947
2.079273	1251.416992
2.079400	1253.653687
2.079527	1299.870117
2.079654	1294.769043
2.079780	1262.801392
2.079907	1272.360962
2.080034	1296.567749
2.080161	1201.140747
2.080288	1210.705688
2.080415	1278.840210
2.080542	1278.628418
2.080669	1256.459229
2.080796	1183.071533
2.080923	1175.558838
2.081050	1209.503418
2.081177	1260.503418
2.081305	1257.856934
2.081432	1243.024780
2.081559	1279.372437
2.081686	1271.851074
2.081814	1198.557617
2.081941	1239.765869
2.082068	1241.995850
2.082195	1212.571533
2.082323	1241.584473
2.082450	1195.131348
2.082577	1192.499634
2.082705	1262.866943
2.082832	1245.627686
2.082960	1233.259033
2.083087	1259.807373
2.083215	1218.260376
2.083342	1254.527344
2.083470	1186.255737
2.083597	1210.363647
2.083724	1183.432617
2.083852	1192.955078
2.083980	1178.181885
2.084107	1207.132690
2.084235	1204.504272
2.084363	1231.013062
2.084490	1167.690552
2.084618	1218.468872
2.084746	1155.169434
2.084874	1237.476440
2.085001	1239.697266
2.085129	1169.148804
2.085257	1210.183716
2.085385	1229.381714
2.085513	1187.962891
2.085641	1158.677734
2.085768	1214.228760
2.085896	1262.491577
2.086024	1257.436646
2.086152	1220.892090
2.086280	1172.249634
2.086408	1225.330444
2.086536	1188.809326
2.086664	1188.612183
2.086792	1185.994629
2.086920	1195.478027
2.087049	1200.118896
2.087177	1209.596680
2.087305	1187.626953
2.087433	1192.266724
2.087561	1092.931396
2.087689	1136.266724
2.087818	1194.090820
2.087946	1176.975220
2.088074	1193.694702
2.088202	1287.720093
2.088331	1173.973999
2.088459	1183.440063
2.088587	1214.635864
2.088716	1195.119263
2.088844	1158.711304
2.088973	1175.414185
2.089101	1233.135498
2.089230	1208.803101
2.089358	1189.303467
2.089487	1215.637817
2.089615	1220.259277
2.089744	1130.843140
2.089872	1145.120239
2.090001	1193.137695
2.090129	1159.200073
2.090258	1118.044800
2.090387	1125.086792
2.090515	1091.177124
2.090644	1131.938477
2.090773	1165.462280
2.090901	1177.306763
2.091030	1169.889771
2.091159	1150.441284
2.091288	1097.309937
2.091417	1118.781616
2.091546	1123.407104
2.091674	1096.763550
2.091803	1209.606323
2.091932	1185.361572
2.092061	1105.833252
2.092190	1139.299805
2.092319	1151.126587
2.092448	1146.129883
2.092577	1172.365845
2.092706	1172.171143
2.092835	1167.173340
2.092964	1154.973511
2.093093	1193.194336
2.093223	1111.382813
2.093352	1096.798218
2.093481	1118.212402
2.093610	1127.623535
2.093739	1113.043335
2.093868	1045.703247
2.093998	1163.031738
2.094127	1170.031250
2.094256	1133.878784
2.094386	1133.690430
2.094515	1131.105713
2.094645	1126.125732
2.094774	1109.169312
2.094903	1132.937256
2.095033	1087.247437
2.095162	1111.010986
2.095292	1072.521973
2.095421	1113.035400
2.095551	1096.097778
2.095680	1155.736328
2.095810	1100.518433
2.095939	1176.880615
2.096069	1085.802734
2.096198	1123.882080
2.096328	1083.051025
2.096458	1058.966553
2.096588	1123.321777
2.096717	1058.614502
2.096847	1142.062378
2.096977	1106.039673
2.097106	1048.532837
2.097236	1084.179443
2.097366	1119.814087
2.097496	1079.044434
2.097626	1136.149902
2.097756	1081.072144
2.097886	1102.367065
2.098016	1061.627197
2.098145	1085.303467
2.098275	1087.507813
2.098405	1096.864990
2.098536	1053.768921
2.098665	1086.965332
2.098796	1113.000854
2.098926	1189.068726
2.099056	1064.980591
2.099186	1091.006592
2.099316	1052.717773
2.099446	1054.923950
2.099576	1123.795166
2.099707	1002.201416
