#Wave		#Intensity
1.699584	377.797089
1.699649	363.450378
1.699714	396.857391
1.699779	430.252808
1.699844	391.940308
1.699908	391.872498
1.699973	415.695251
1.700038	420.400604
1.700103	367.786926
1.700168	386.825806
1.700233	362.884918
1.700298	362.822144
1.700363	353.213135
1.700428	415.192261
1.700493	367.405487
1.700558	438.902100
1.700623	443.596100
1.700688	414.905243
1.700753	491.124786
1.700818	352.785950
1.700883	390.857422
1.700948	409.852783
1.701013	385.957428
1.701078	347.778076
1.701143	433.456696
1.701208	404.807190
1.701273	385.690796
1.701338	404.667358
1.701403	361.757751
1.701468	380.731842
1.701534	356.874481
1.701599	404.387909
1.701664	404.318085
1.701729	409.004150
1.701794	323.342804
1.701859	404.108704
1.701925	346.998169
1.701990	437.237274
1.702055	389.644226
1.702120	365.822296
1.702186	346.758698
1.702251	403.690460
1.702316	408.369293
1.702381	356.074554
1.702447	365.506805
1.702512	351.205688
1.702577	412.832764
1.702643	417.505951
1.702708	450.638947
1.702773	422.104736
1.702839	384.096466
1.702904	421.959167
1.702969	374.483459
1.703035	431.292633
1.703100	450.172943
1.703166	379.027649
1.703231	416.858551
1.703297	374.160797
1.703362	416.714874
1.703427	426.112244
1.703493	426.038818
1.703558	449.630157
1.703624	326.517212
1.703689	425.818634
1.703755	335.865723
1.703820	392.564148
1.703886	373.581024
1.703952	411.341156
1.704017	420.724823
1.704083	387.567352
1.704148	382.774994
1.704214	434.681915
1.704280	410.987122
1.704345	462.871338
1.704411	415.568024
1.704476	415.496490
1.704542	443.749390
1.704608	434.233185
1.704674	467.192230
1.704739	344.436005
1.704805	391.551636
1.704871	372.617554
1.704936	448.007294
1.705002	429.070007
1.705068	518.566833
1.705134	405.355255
1.705199	457.124359
1.705265	442.910309
1.705331	423.990143
1.705397	428.627411
1.705463	419.134949
1.705528	423.771454
1.705594	508.438324
1.705660	470.695282
1.705726	409.434509
1.705792	409.364136
1.705858	465.748077
1.705924	451.556885
1.705989	418.558929
1.706056	413.784882
1.706121	451.324127
1.706187	347.835907
1.706253	347.776154
1.706319	427.597198
1.706385	375.845062
1.706451	441.542084
1.706517	455.555603
1.706583	436.694794
1.706649	446.009460
1.706715	511.649292
1.706781	483.402100
1.706847	492.703918
1.706913	426.936768
1.706980	483.153137
1.707046	440.860199
1.707112	436.095306
1.707178	473.527588
1.707244	426.570465
1.707310	496.798981
1.707376	454.539917
1.707443	416.980530
1.707509	435.646484
1.707575	444.938873
1.707641	412.083191
1.707707	505.651703
1.707773	444.709900
1.707840	435.272919
1.707906	439.877808
1.707972	449.159882
1.708038	537.963806
1.708105	477.068726
1.708171	519.073975
1.708237	425.474182
1.708303	448.774933
1.708370	415.980438
1.708436	429.928528
1.708503	387.803833
1.708569	467.153442
1.708635	453.061188
1.708702	495.012939
1.708768	471.582458
1.708834	406.144989
1.708901	429.413055
1.708967	476.006805
1.709034	438.597809
1.709100	447.852936
1.709167	452.440552
1.709233	438.372437
1.709299	456.948334
1.709366	484.841705
1.709432	475.436401
1.709499	489.335999
1.709566	517.209473
1.709632	414.628510
1.709699	456.479065
1.709765	475.029510
1.709832	437.697357
1.709898	405.033539
1.709965	432.892792
1.710032	479.358337
1.710098	483.929474
1.710165	469.889557
1.710231	469.809143
1.710298	455.776428
1.710365	492.898315
1.710431	432.374542
1.710498	450.894165
1.710565	562.359375
1.710631	464.680328
1.710698	446.016815
1.710765	464.521393
1.710832	524.819397
1.710898	413.282654
1.710965	445.711823
1.711032	478.129883
1.711099	445.559418
1.711165	459.404602
1.711232	515.001953
1.711299	510.275055
1.711366	473.083282
1.711433	542.561584
1.711500	412.647278
1.711566	472.840759
1.711633	472.759979
1.711700	481.947418
1.711767	477.231750
1.711834	542.005615
1.711901	407.592682
1.711968	476.987213
1.712035	449.124817
1.712102	495.341736
1.712169	578.571411
1.712236	509.055908
1.712303	467.326080
1.712370	453.367676
1.712437	541.173035
1.712504	541.080688
1.712571	554.859802
1.712638	503.911621
1.712705	489.958832
1.712772	545.332764
1.712839	494.412262
1.712906	595.965393
1.712973	452.671631
1.713040	480.304260
1.713107	494.074860
1.713175	489.373840
1.713242	516.986023
1.713309	521.513000
1.713376	530.652771
1.713443	498.267151
1.713511	488.956573
1.713578	456.589111
1.713645	511.845917
1.713712	557.863037
1.713779	465.574860
1.713847	516.192993
1.713914	511.496918
1.713981	543.660767
1.714048	515.929016
1.714116	529.658264
1.714183	621.666748
1.714250	534.081848
1.714318	557.007690
1.714385	520.092041
1.714453	561.419617
1.714520	529.116882
1.714587	510.625763
1.714655	542.734924
1.714722	579.431763
1.714789	505.766937
1.714857	583.831482
1.714924	514.787292
1.714992	528.486206
1.715059	583.533203
1.715127	519.118286
1.715194	509.843506
1.715262	523.533875
1.715329	541.811218
1.715397	532.537292
1.715464	426.875305
1.715532	472.695404
1.715599	454.260956
1.715667	532.174744
1.715734	536.671082
1.715802	559.510559
1.715870	577.756775
1.715937	559.320129
1.716005	623.398254
1.716073	504.133392
1.716140	591.110413
1.716208	485.635986
1.716275	549.683044
1.716343	581.648926
1.716411	499.125580
1.716478	549.402588
1.716546	544.731567
1.716614	521.754944
1.716682	503.362122
1.716749	517.002258
1.716817	567.233459
1.716885	553.415955
1.716953	567.040588
1.717021	576.088440
1.717088	479.992065
1.717156	617.027771
1.717224	589.504089
1.717292	598.541931
1.717360	616.713196
1.717427	529.826477
1.717495	548.003235
1.717563	543.344177
1.717631	547.817017
1.717699	579.674500
1.717767	524.812927
1.717835	611.417236
1.717903	588.503174
1.717971	565.596863
1.718039	588.303284
1.718107	519.807617
1.718175	574.426636
1.718243	501.398407
1.718311	542.329773
1.718379	569.577454
1.718447	487.475494
1.718515	628.599976
1.718583	601.167480
1.718651	601.065430
1.718719	596.410645
1.718787	482.509888
1.718855	564.349731
1.718923	577.905273
1.718992	505.012573
1.719060	532.220215
1.719128	550.322388
1.719196	609.344543
1.719264	554.682190
1.719332	577.317139
1.719401	572.674133
1.719469	590.754089
1.719537	631.545288
1.719605	631.438171
1.719674	604.079346
1.719742	540.400391
1.719810	626.576538
1.719878	571.994629
1.719947	526.508911
1.720015	571.800659
1.720083	567.166382
1.720152	489.948669
1.720220	548.830933
1.720288	616.763245
1.720357	603.055908
1.720425	634.688110
1.720493	571.122498
1.720562	611.813232
1.720630	575.460144
1.720699	629.727600
1.720767	588.854065
1.720835	593.283142
1.720904	597.710754
1.720972	584.027466
1.721041	660.880371
1.721109	660.768372
1.721178	615.406006
1.721246	588.156128
1.721315	551.868408
1.721383	615.093384
1.721452	556.203491
1.721520	533.503235
1.721589	655.465027
1.721658	623.716248
1.721726	582.940369
1.721795	600.914307
1.721864	551.121338
1.721932	551.028015
1.722001	605.125061
1.722069	618.567932
1.722138	668.120850
1.722207	564.195801
1.722275	667.894775
1.722344	717.414185
1.722413	590.977051
1.722481	667.555786
1.722550	622.345337
1.722619	608.713135
1.722688	608.610168
1.722756	703.163879
1.722825	639.951172
1.722894	653.360718
1.722963	671.270935
1.723032	644.130920
1.723101	653.029297
1.723169	693.444885
1.723238	603.285095
1.723307	616.687195
1.723376	625.584106
1.723445	598.479309
1.723514	688.359802
1.723583	625.266907
1.723651	625.161194
1.723720	607.068359
1.723789	669.910339
1.723858	728.235779
1.723927	575.298950
1.723996	566.214233
1.724065	624.527588
1.724134	615.437561
1.724203	655.756958
1.724272	574.813110
1.724341	588.185913
1.724410	677.870728
1.724479	686.733154
1.724549	659.690979
1.724618	677.527344
1.724687	619.092590
1.724756	650.385986
1.724825	645.791504
1.724894	609.811218
1.724963	659.022888
1.725032	663.393982
1.725101	596.057495
1.725171	636.284729
1.725240	649.617737
1.725309	694.301697
1.725378	658.355652
1.725447	676.155945
1.725517	617.839539
1.725586	635.640686
1.725655	733.996338
1.725724	698.073792
1.725794	729.274536
1.725863	612.845154
1.725932	684.302856
1.726002	719.961914
1.726071	737.724670
1.726140	616.902039
1.726210	697.249878
1.726279	715.007446
1.726348	670.206421
1.726418	674.560669
1.726487	763.777649
1.726557	611.812256
1.726626	629.569214
1.726696	714.284302
1.726765	660.601624
1.726834	620.325256
1.726904	704.999084
1.726973	575.503479
1.727043	713.682434
1.727112	709.102417
1.727182	659.933777
1.727251	633.072937
1.727321	704.286438
1.727390	766.562378
1.727460	650.577026
1.727530	659.377869
1.727599	641.448792
1.727669	717.054565
1.727738	761.463806
1.727808	690.099426
1.727878	623.210632
1.727947	716.571472
1.728017	645.250732
1.728087	618.446533
1.728156	707.312500
1.728226	676.059082
1.728296	800.461487
1.728365	804.772949
1.728435	729.063721
1.728505	813.391479
1.728575	742.150330
1.728644	715.365784
1.728714	710.802856
1.728784	728.450256
1.728854	746.091736
1.728923	706.003723
1.728993	728.082520
1.729063	670.255859
1.729133	701.209290
1.729203	665.593018
1.729273	745.338745
1.729343	700.855347
1.729412	709.607544
1.729482	696.185242
1.729552	762.571472
1.729622	682.652649
1.729692	709.130188
1.729762	740.030151
1.729832	686.738770
1.729902	673.333801
1.729972	766.231323
1.730042	659.822327
1.730112	726.125305
1.730182	774.698547
1.730252	739.159424
1.730322	743.460510
1.730392	650.418579
1.730462	725.515076
1.730532	805.009460
1.730602	681.047302
1.730672	738.414185
1.730743	725.027405
1.730813	707.224915
1.730883	729.203125
1.730953	746.755249
1.731023	808.480774
1.731093	790.676208
1.731164	817.041992
1.731234	688.849365
1.731304	732.883240
1.731374	715.103271
1.731444	785.598755
1.731515	803.117737
1.731585	732.390930
1.731655	794.025452
1.731725	767.429016
1.731796	749.661072
1.731866	753.944214
1.731936	692.101501
1.732007	784.543884
1.732077	780.005310
1.732147	691.752991
1.732218	806.175415
1.732288	726.757446
1.732358	775.077820
1.732429	814.575684
1.732499	766.012878
1.732570	730.671204
1.732640	792.161133
1.732710	774.427551
1.732781	822.691223
1.732851	712.586121
1.732922	769.639832
1.732992	751.921875
1.733063	760.588623
1.733133	782.439636
1.733204	760.333435
1.733274	768.994385
1.733345	786.439453
1.733416	755.558105
1.733486	737.863220
1.733557	808.000305
1.733627	772.740234
1.733698	803.339478
1.733769	750.535645
1.733839	789.905029
1.733910	789.772583
1.733980	758.931946
1.734051	771.963135
1.734122	789.375366
1.734193	819.935852
1.734263	767.190979
1.734334	749.529541
1.734405	837.053467
1.734475	823.767944
1.734546	753.533752
1.734617	836.632690
1.734688	801.456177
1.734758	823.215881
1.734829	809.943726
1.734900	875.468140
1.734971	805.295715
1.735042	805.160767
1.735113	844.402161
1.735183	813.639832
1.735254	739.151062
1.735325	756.519043
1.735396	765.136719
1.735467	730.036743
1.735538	852.295349
1.735609	821.562561
1.735680	869.487061
1.735751	786.338989
1.735822	746.896973
1.735893	812.278198
1.735964	860.172119
1.736035	816.371887
1.736106	833.694763
1.736177	877.196838
1.736248	868.323120
1.736319	794.011841
1.736390	828.774719
1.736461	715.243713
1.736532	828.497314
1.736603	863.236938
1.736674	736.679932
1.736745	876.023010
1.736817	827.942871
1.736888	762.451355
1.736959	810.241333
1.737030	971.255798
1.737101	766.423462
1.737172	849.020264
1.737244	879.350830
1.737315	757.333923
1.737386	835.539001
1.737457	857.154419
1.737528	870.062012
1.737600	804.672791
1.737671	830.631348
1.737742	839.188721
1.737814	939.038574
1.737885	969.308289
1.737956	804.000244
1.738028	895.115417
1.738099	851.520874
1.738170	881.784912
1.738242	825.177917
1.738313	959.651794
1.738384	790.169373
1.738456	824.764221
1.738527	855.007324
1.738599	854.864441
1.738670	850.382935
1.738742	980.379700
1.738813	837.087036
1.738885	832.610657
1.738956	867.157837
1.739028	958.049316
1.739099	931.883240
1.739171	801.719055
1.739242	888.242981
1.739314	844.772888
1.739385	913.934937
1.739457	844.490723
1.739528	909.299683
1.739600	900.489258
1.739672	870.039001
1.739743	887.205017
1.739815	891.383972
1.739887	852.297668
1.739958	968.948242
1.740030	873.637817
1.740101	916.734131
1.740173	886.316589
1.740245	920.750854
1.740317	790.935547
1.740388	898.836792
1.740460	1023.984436
1.740532	894.216919
1.740604	872.471802
1.740675	941.421387
1.740747	898.086975
1.740819	897.937134
1.740891	910.736145
1.740963	919.215332
1.741034	841.394775
1.741106	957.735718
1.741178	936.008911
1.741250	987.604980
1.741322	952.944519
1.741394	849.315674
1.741466	948.316101
1.741538	939.538330
1.741610	965.236145
1.741681	960.766846
1.741753	926.145386
1.741825	925.990906
1.741897	977.511108
1.741969	951.515137
1.742041	934.137329
1.742113	912.461304
1.742185	959.645935
1.742257	912.157043
1.742329	894.797363
1.742401	997.876831
1.742474	1006.311462
1.742546	1006.143738
1.742618	881.303772
1.742690	919.841797
1.742762	872.414795
1.742834	928.129028
1.742906	962.343811
1.742978	970.774353
1.743051	931.959900
1.743123	1004.803101
1.743195	961.702576
1.743267	914.323730
1.743340	909.879517
1.743412	1047.045410
1.743484	926.738220
1.743556	943.742798
1.743629	999.342957
1.743701	982.023254
1.743773	956.134155
1.743845	921.679810
1.743918	994.391174
1.743990	981.369263
1.744062	964.066833
1.744135	1045.302856
1.744207	946.612549
1.744280	916.476746
1.744352	1061.908447
1.744424	1048.888062
1.744497	988.786987
1.744569	928.705872
1.744642	997.015869
1.744714	1061.024780
1.744786	992.406372
1.744859	1026.456421
1.744931	923.657043
1.745004	1000.461975
1.745076	957.547791
1.745149	1064.239868
1.745221	1059.789429
1.745294	986.978271
1.745367	1016.717529
1.745439	965.293823
1.745512	1063.354736
1.745584	1067.447632
1.745657	1101.422729
1.745729	1088.434448
1.745802	1011.435486
1.745875	951.529968
1.745947	1113.488770
1.746020	1006.665344
1.746093	1087.529541
1.746166	989.274109
1.746238	1061.587524
1.746311	1108.300537
1.746384	1048.448486
1.746456	1039.751587
1.746529	1107.747803
1.746602	1039.405884
1.746675	1060.528809
1.746747	1051.835693
1.746820	1004.825745
1.746893	1047.229004
1.746966	1144.950317
1.747039	1029.858398
1.747112	1106.275635
1.747184	1072.058105
1.747257	995.317139
1.747330	1139.746460
1.747403	1114.044556
1.747476	1020.329224
1.747549	1054.165039
1.747622	1045.489990
1.747695	1075.061035
1.747768	1104.622192
1.747841	1083.199585
1.747914	1036.301147
1.747987	1065.854004
1.748060	1052.939697
1.748133	1048.519775
1.748206	1014.391174
1.748279	1166.992676
1.748352	1009.811340
1.748425	1013.885864
1.748498	1077.339966
1.748571	1119.568970
1.748644	1076.982178
1.748717	1110.718384
1.748791	1063.908569
1.748864	1097.635620
1.748937	1076.267090
1.749010	1059.142090
1.749083	1084.381470
1.749156	1041.849854
1.749229	1062.849243
1.749303	1113.477905
1.749376	1049.797241
1.749449	1125.805420
1.749522	1100.228638
1.749596	1087.353271
1.749669	1116.784424
1.749742	1180.042236
1.749816	1120.642700
1.749889	1150.053711
1.749962	1069.541626
1.750035	1039.776978
1.750109	1124.125244
1.750182	1102.812012
1.750256	1132.201538
1.750329	1068.654785
1.750402	1026.245117
1.750476	1051.410156
1.750549	1228.552612
1.750623	1122.820557
1.750696	1223.924683
1.750769	1160.425781
1.750843	1147.576294
1.750916	1176.914307
1.750990	1117.672241
1.751063	1218.693359
1.751137	1138.382813
1.751211	1133.978516
1.751284	1293.954346
1.751358	1112.531982
1.751431	1103.920654
1.751505	1124.801270
1.751578	1107.766724
1.751652	1187.598633
1.751725	1200.033691
1.751799	1153.525391
1.751873	1220.682129
1.751946	1174.185791
1.752020	1148.744141
1.752094	1173.796631
1.752167	1089.473022
1.752241	1106.115479
1.752315	1143.777832
1.752389	1105.749023
1.752462	1164.417236
1.752536	1235.674927
1.752610	1164.031494
1.752684	1180.644897
1.752757	1209.855591
1.752831	1255.857300
1.752905	1175.858887
1.752979	1217.652100
1.753053	1192.261841
1.753127	1154.287598
1.753200	1204.457031
1.753274	1174.885498
1.753348	1166.300293
1.753422	1132.550049
1.753496	1212.047363
1.753570	1199.266968
1.753644	1182.298218
1.753718	1303.666138
1.753792	1236.391846
1.753866	1244.567993
1.753940	1181.515503
1.754014	1244.156006
1.754088	1164.370850
1.754162	1172.553467
1.754236	1331.465332
1.754310	1184.724243
1.754384	1176.156982
1.754458	1251.290894
1.754532	1213.425781
1.754606	1309.446289
1.754680	1233.938477
1.754754	1250.462891
1.754828	1275.344727
1.754902	1224.964478
1.754977	1216.401733
1.755051	1220.379883
1.755125	1236.892700
1.755199	1219.976074
1.755273	1261.547363
1.755347	1244.632202
1.755422	1261.130127
1.755496	1427.930908
1.755570	1273.236572
1.755645	1256.330566
1.755719	1335.412964
1.755793	1297.639893
1.755867	1176.443481
1.755942	1305.552856
1.756016	1267.803345
1.756090	1180.029663
1.756165	1271.553223
1.756239	1233.827881
1.756314	1262.797485
1.756388	1316.759155
1.756462	1308.208984
1.756537	1307.992676
1.756611	1282.787109
1.756685	1299.231934
1.756760	1249.055054
1.756834	1286.313965
1.756909	1202.858643
1.756983	1377.440796
1.757058	1310.640991
1.757132	1310.424438
1.757207	1422.511353
1.757281	1422.276367
1.757356	1272.352783
1.757431	1384.390381
1.757505	1334.281982
1.757580	1309.125854
1.757654	1267.356812
1.757729	1420.867065
1.757804	1354.169922
1.757878	1407.937988
1.757953	1407.705444
1.758028	1237.247559
1.758102	1365.728882
1.758177	1328.149170
1.758252	1298.881348
1.758326	1352.605103
1.758401	1302.600830
1.758476	1480.737915
1.758550	1335.346924
1.758625	1326.833740
1.758700	1459.276123
1.758775	1376.135498
1.758850	1280.589355
1.758924	1301.095947
1.758999	1313.310059
1.759074	1321.377686
1.759149	1358.433716
1.759224	1412.040894
1.759298	1386.966675
1.759373	1370.179688
1.759448	1378.231201
1.759523	1431.799683
1.759598	1377.776245
1.759673	1340.317871
1.759748	1488.996216
1.759823	1488.750610
1.759898	1352.058594
1.759973	1479.991211
1.760048	1426.013184
1.760123	1363.787476
1.760198	1342.902466
1.760273	1355.074951
1.760348	1342.459473
1.760423	1445.487061
1.760498	1412.214355
1.760573	1428.495728
1.760648	1333.317993
1.760723	1440.406250
1.760798	1378.270386
1.760874	1324.406616
1.760949	1456.194458
1.761024	1526.071167
1.761099	1364.989868
1.761174	1373.011108
1.761249	1533.561279
1.761325	1483.846802
1.761400	1574.266724
1.761475	1388.587402
1.761550	1483.112915
1.761626	1458.153931
1.761701	1408.492798
1.761776	1445.320068
1.761851	1416.262451
1.761927	1436.610840
1.762002	1465.183838
1.762077	1485.517334
1.762153	1588.130737
1.762228	1419.209351
1.762303	1472.444092
1.762379	1398.180054
1.762454	1439.065796
1.762529	1463.494385
1.762605	1467.363403
1.762680	1491.779175
1.762756	1573.711426
1.762831	1458.421753
1.762907	1491.041870
1.762982	1564.719971
1.763058	1539.824951
1.763133	1502.621582
1.763209	1580.366211
1.763284	1510.334961
1.763360	1534.707153
1.763435	1440.089478
1.763511	1546.507935
1.763586	1509.340088
1.763662	1570.603394
1.763738	1517.043213
1.763813	1541.390015
1.763889	1528.839844
1.763964	1458.920532
1.764040	1524.238892
1.764116	1540.374878
1.764191	1515.544922
1.764267	1543.963135
1.764343	1494.572266
1.764419	1465.667847
1.764494	1489.986816
1.764570	1592.058960
1.764646	1518.140381
1.764722	1431.972168
1.764797	1570.819458
1.764873	1701.440918
1.764949	1635.731567
1.765025	1615.019165
1.765100	1492.113770
1.765176	1630.836792
1.765252	1606.048584
1.765328	1544.494751
1.765404	1593.264160
1.765480	1629.763550
1.765556	1698.922485
1.765632	1494.479126
1.765708	1559.554810
1.765783	1591.953735
1.765859	1636.585693
1.765935	1546.543457
1.766011	1591.168091
1.766087	1635.778076
1.766163	1574.330322
1.766239	1671.941040
1.766315	1590.121338
1.766391	1610.242676
1.766467	1707.799194
1.766544	1544.509399
1.766620	1605.373657
1.766696	1588.814209
1.766772	1637.431396
1.766848	1519.058350
1.766924	1612.461670
1.767000	1652.908569
1.767076	1620.072510
1.767152	1709.343140
1.767229	1603.262939
1.767305	1627.410522
1.767381	1659.685791
1.767457	1565.867676
1.767533	1691.672363
1.767610	1711.723511
1.767686	1634.203613
1.767762	1723.354370
1.767838	1580.836426
1.767915	1706.535156
1.767991	1681.879517
1.768067	1689.726807
1.768144	1738.183228
1.768220	1660.747925
1.768296	1680.774170
1.768373	1648.024536
1.768449	1732.982422
1.768525	1602.846680
1.768602	1614.754883
1.768678	1768.636841
1.768755	1760.234497
1.768831	1707.228027
1.768908	1711.002075
1.768984	1666.128662
1.769060	1726.652588
1.769137	1698.001343
1.769214	1665.307739
1.769290	1762.262451
1.769367	1729.568848
1.769443	1777.882935
1.769520	1696.607300
1.769596	1781.347412
1.769673	1760.815674
1.769749	1732.196167
1.769826	1711.679077
1.769903	1788.269287
1.769979	1735.388062
1.770056	1731.058594
1.770132	1746.949829
1.770209	1783.051758
1.770286	1823.184326
1.770362	1709.712524
1.770439	1669.019775
1.770516	1717.232300
1.770593	1821.987305
1.770669	1765.139160
1.770746	1833.504883
1.770823	1768.597534
1.770900	1764.270020
1.770976	1897.187134
1.771053	1783.870361
1.771130	1864.282471
1.771207	1819.596069
1.771284	1754.754761
1.771361	1899.664063
1.771437	1859.026367
1.771514	1782.114502
1.771591	1757.634521
1.771668	1777.499146
1.771745	1761.087646
1.771822	1837.355103
1.771899	1768.567017
1.771976	1977.731079
1.772053	1784.095947
1.772130	1779.776611
1.772207	1872.082275
1.772284	1944.230957
1.772361	1911.714722
1.772438	1770.561035
1.772515	1870.854126
1.772592	1975.136963
1.772669	1846.108276
1.772746	1841.784180
1.772823	1829.419922
1.772900	1917.560913
1.772977	1941.362671
1.773054	1840.576172
1.773132	1960.816406
1.773209	1992.634033
1.773286	1960.173340
1.773363	1883.546143
1.773440	1843.083008
1.773517	2003.371704
1.773595	1886.633911
1.773672	1761.907471
1.773749	1841.874634
1.773826	1917.803345
1.773904	1929.523315
1.773981	1925.196167
1.774058	1981.022949
1.774136	1868.431885
1.774213	1896.187622
1.774290	1951.991577
1.774368	1911.596313
1.774445	1931.317383
1.774522	1914.975952
1.774600	1954.717773
1.774677	1974.421997
1.774755	1966.089966
1.774832	2069.861328
1.774909	1929.419067
1.774987	2025.157837
1.775064	1896.773804
1.775142	2092.510742
1.775219	2028.162842
1.775297	1947.837280
1.775374	1963.514160
1.775452	2039.161255
1.775529	1938.884644
1.775607	1934.569946
1.775684	2018.177246
1.775762	2013.850952
1.775840	2049.476807
1.775917	1969.252563
1.775995	1984.905029
1.776072	2160.277100
1.776150	1944.330200
1.776228	2067.758057
1.776305	1999.569580
1.776383	2055.109131
1.776461	2002.904663
1.776538	2126.241699
1.776616	2157.801758
1.776694	1977.993530
1.776772	2001.593018
1.776849	2124.849365
1.776927	2108.557861
1.777005	2056.403809
1.777083	2135.759766
1.777161	2203.137695
1.777238	2254.560059
1.777316	2074.970947
1.777394	2114.451416
1.777472	2090.217041
1.777550	2181.431396
1.777628	2109.433105
1.777706	2049.396729
1.777783	2112.721436
1.777861	2319.237305
1.777939	2147.827148
1.778017	2151.452393
1.778095	2079.529297
1.778173	2198.454346
1.778251	2142.446533
1.778329	2209.657471
1.778407	2141.745361
1.778485	2216.880127
1.778563	2188.711670
1.778641	2192.324951
1.778719	2195.937256
1.778797	2207.489014
1.778875	2230.945801
1.778953	2182.952637
1.779032	2202.437256
1.779110	2142.561523
1.779188	2181.881592
1.779266	2256.886230
1.779344	2161.338867
1.779422	2200.636475
1.779500	2346.961670
1.779579	2195.952881
1.779657	2310.525391
1.779735	2163.534424
1.779813	2159.218750
1.779892	2206.400391
1.779970	2332.777832
1.780048	2257.157715
1.780126	2256.788574
1.780205	2284.130127
1.780283	2125.437256
1.780361	2291.297852
1.780440	2180.135742
1.780518	2203.515625
1.780596	2266.441650
1.780675	2285.844971
1.780753	2257.792480
1.780832	2399.747803
1.780910	2332.157715
1.780988	2347.585205
1.781067	2355.104248
1.781145	2287.554688
1.781224	2370.135498
1.781302	2330.252197
1.781381	2389.105225
1.781459	2266.317871
1.781538	2329.109863
1.781616	2285.312012
1.781695	2367.812012
1.781773	2351.642334
1.781852	2299.972168
1.781931	2386.373535
1.782009	2374.152100
1.782088	2444.740479
1.782166	2306.354004
1.782245	2341.453857
1.782324	2419.895264
1.782402	2447.083740
1.782481	2407.284912
1.782560	2462.041260
1.782638	2390.743896
1.782717	2437.608887
1.782796	2358.464111
1.782875	2503.736328
1.782953	2483.647217
1.783032	2333.696045
1.783111	2490.705322
1.783190	2399.813721
1.783268	2485.958252
1.783347	2454.089600
1.783426	2375.044922
1.783505	2512.261230
1.783584	2519.712891
1.783663	2413.184082
1.783742	2573.904541
1.783820	2377.035156
1.783899	2498.425537
1.783978	2509.800781
1.784057	2501.536865
1.784136	2473.643311
1.784215	2532.126221
1.784294	2429.659180
1.784373	2401.791016
1.784452	2487.723633
1.784531	2444.162109
1.784610	2424.150391
1.784689	2490.427490
1.784768	2560.604248
1.784847	2650.361084
1.784926	2583.288330
1.785005	2594.624756
1.785084	2539.338867
1.785164	2499.743652
1.785243	2601.189453
1.785322	2506.761230
1.785401	2737.406494
1.785480	2701.719971
1.785559	2662.129883
1.785638	2599.067383
1.785718	2629.952148
1.785797	2598.219238
1.785876	2691.691406
1.785955	2671.693604
1.786035	2643.880371
1.786114	2737.299072
1.786193	2639.107666
1.786273	2673.859619
1.786352	2638.246582
1.786431	2622.184814
1.786510	2645.200439
1.786590	2769.780029
1.786669	2734.174561
1.786748	2671.243164
1.786828	2627.855957
1.786907	2713.316406
1.786987	2705.066895
1.787066	2657.792480
1.787146	2751.010254
1.787225	2606.205811
1.787304	2668.194580
1.787384	2761.365234
1.787463	2725.818359
1.787543	2659.091553
1.787622	2767.811035
1.787702	2669.917236
1.787781	2739.628906
1.787861	2719.699951
1.787941	2754.318604
1.788020	2781.135498
1.788100	2858.572266
1.788179	2737.395996
1.788259	2768.095703
1.788339	2822.140869
1.788418	2778.868896
1.788498	2751.176514
1.788578	2871.339844
1.788657	2921.442627
1.788737	2675.931885
1.788817	2733.827637
1.788896	2896.685059
1.788976	2837.899902
1.789056	2786.907715
1.789136	2751.477051
1.789215	2840.398193
1.789295	2851.590088
1.789375	2932.697021
1.789455	2889.498047
1.789535	2908.442627
1.789614	2814.789307
1.789694	2740.575684
1.789774	3015.694580
1.789854	2836.696777
1.789934	2948.752686
1.790014	2835.772461
1.790094	2936.155762
1.790174	2924.043213
1.790254	3090.295410
1.790334	2969.611816
1.790413	2965.251953
1.790493	2976.395264
1.790573	2859.663818
1.790653	3010.293701
1.790734	2936.204590
1.790814	2823.409424
1.790894	3097.886963
1.790974	2950.256836
1.791054	2957.518311
1.791134	2891.238770
1.791214	2883.028076
1.791294	3122.449219
1.791374	3040.700439
1.791454	3071.148926
1.791534	2912.088623
1.791615	3132.015381
1.791695	3015.523682
1.791775	3018.897949
1.791855	3215.510986
1.791935	3064.284912
1.792016	2998.105713
1.792096	3074.875732
1.792176	3132.309082
1.792256	3066.151123
1.792337	3046.346680
1.792417	3041.990234
1.792497	3107.110840
1.792578	3149.055420
1.792658	3148.542725
1.792738	3167.319580
1.792819	3124.374268
1.792899	3162.431885
1.792979	3131.068848
1.793060	3107.427002
1.793140	3118.485352
1.793221	3071.728516
1.793301	3144.444580
1.793381	3405.927246
1.793462	3062.524170
1.793542	3150.612549
1.793623	3073.080322
1.793703	3141.886475
1.793784	3145.224609
1.793864	3317.922119
1.793945	3140.352539
1.794026	3262.972412
1.794106	3277.830322
1.794187	3234.984375
1.794267	3280.609619
1.794348	3180.096924
1.794428	3317.989258
1.794509	3167.529785
1.794590	3270.787842
1.794670	3443.183350
1.794751	3292.776855
1.794832	3253.825195
1.794912	3222.568115
1.794993	3252.766602
1.795074	3282.955078
1.795155	3217.156494
1.795235	3308.756104
1.795316	3308.218018
1.795397	3288.493652
1.795478	3433.749268
1.795559	3402.502930
1.795639	3517.009766
1.795720	3355.379395
1.795801	3393.174561
1.795882	3269.951660
1.795963	3300.082520
1.796044	3487.324951
1.796125	3341.156738
1.796205	3375.092285
1.796286	3447.320068
1.796367	3500.375732
1.796448	3461.515381
1.796529	3346.097900
1.796610	3422.111084
1.796691	3387.109375
1.796772	3509.010254
1.796853	3439.571777
1.796934	3370.155762
1.797015	3354.308838
1.797096	3525.849365
1.797177	3502.334961
1.797258	3536.171631
1.797340	3539.418945
1.797421	3603.811523
1.797502	3496.236816
1.797583	3434.541992
1.797664	3670.810059
1.797745	3540.362061
1.797826	3654.342529
1.797908	3711.017334
1.797989	3515.731934
1.798070	3473.177002
1.798151	3606.174561
1.798232	3506.386963
1.798314	3566.854004
1.798395	3589.159668
1.798476	3641.966309
1.798558	3591.805908
1.798639	3644.594971
1.798720	3644.002686
1.798802	3525.266357
1.798883	3639.007813
1.798964	3668.895264
1.799046	3561.640381
1.799127	3721.023682
1.799208	3842.275146
1.799290	3617.015137
1.799371	3886.707764
1.799453	3669.125977
1.799534	3828.362061
1.799616	3686.958252
1.799697	3621.686279
1.799778	3811.281494
1.799860	3715.585938
1.799942	3791.031006
1.800023	3953.893555
1.800105	3747.986328
1.800186	3861.395020
1.800268	3872.167480
1.800349	3962.722900
1.800431	3836.721191
1.800513	3725.952393
1.800594	3820.284668
1.800676	3770.304688
1.800757	3800.062500
1.800839	3647.619385
1.800921	3855.753662
1.801003	3919.632568
1.801084	4010.047119
1.801166	4020.775391
1.801248	4137.691895
1.801329	3962.590332
1.801411	3859.580811
1.801493	3813.465332
1.801575	3941.709717
1.801656	3963.806396
1.801738	3925.274170
1.801820	3890.542480
1.801902	4064.142334
1.801984	4025.612061
1.802066	3941.657471
1.802148	3986.447021
1.802229	3853.318359
1.802311	4140.319824
1.802393	3973.153809
1.802475	4048.175537
1.802557	3907.557373
1.802639	3993.911621
1.802721	4091.582275
1.802803	4117.384277
1.802885	4082.693359
1.802967	4063.132568
1.803049	4149.391113
1.803131	4141.160645
1.803213	4272.711914
1.803295	4056.717773
1.803377	4067.389160
1.803459	4130.920410
1.803541	4050.967529
1.803623	4201.300293
1.803706	4204.392578
1.803788	4071.636475
1.803870	4153.979980
1.803952	4375.871582
1.804034	4122.458496
1.804116	4231.150391
1.804199	4241.775391
1.804281	4237.317383
1.804363	4093.398438
1.804445	4281.165527
1.804528	4193.806641
1.804610	4234.567383
1.804692	4230.113770
1.804775	4071.247559
1.804857	4228.741211
1.804939	4292.059570
1.805022	4280.070313
1.805104	4268.084473
1.805186	4677.573242
1.805269	4413.437988
1.805351	4378.864746
1.805434	4396.960938
1.805516	4321.034180
1.805598	4463.216309
1.805681	4409.859375
1.805763	4251.271973
1.805846	4464.802734
1.805928	4343.833984
1.806011	4252.960449
1.806093	4383.745605
1.806176	4582.092773
1.806258	4423.630859
1.806341	4561.833496
1.806423	4564.847656
1.806506	4402.711914
1.806589	4405.750977
1.806671	4502.592773
1.806754	4411.825195
1.806836	4546.143555
1.806919	4365.390137
1.807002	4522.170898
1.807084	4521.437500
1.807167	4543.195801
1.807250	4553.702637
1.807333	4624.163086
1.807415	4597.186523
1.807498	4536.503418
1.807581	4580.713867
1.807664	4666.103027
1.807746	4564.251465
1.807829	4473.664063
1.807912	4705.007324
1.807995	4599.456543
1.808078	4591.227051
1.808160	4713.942871
1.808243	4627.144531
1.808326	4678.754883
1.808409	4752.784668
1.808492	4744.536621
1.808575	4721.338379
1.808658	4627.133301
1.808741	4704.859863
1.808824	4790.033691
1.808907	4718.277832
1.808990	4754.864746
1.809073	4739.155762
1.809156	4876.543945
1.809239	4726.419922
1.809322	4718.187988
1.809405	4717.423340
1.809488	4858.457520
1.809571	4805.437012
1.809654	4871.804199
1.809737	4822.528320
1.809820	4836.663086
1.809903	4850.793457
1.809987	4887.286621
1.810070	4819.402832
1.810153	4978.870117
1.810236	5071.215820
1.810319	4992.158691
1.810403	4838.629395
1.810486	5024.059570
1.810569	4896.640625
1.810652	4769.262695
1.810735	4906.221680
1.810819	4938.923340
1.810902	5049.761230
1.810985	5164.284180
1.811069	4895.603027
1.811152	5032.429688
1.811235	4849.390625
1.811319	5101.446289
1.811402	5011.395996
1.811486	5103.510742
1.811569	5110.116699
1.811652	5209.617188
1.811736	4956.136719
1.811819	5063.058594
1.811903	5084.522461
1.811986	5228.522949
1.812070	5153.419434
1.812153	5234.253906
1.812237	5177.731934
1.812320	5199.159668
1.812404	5157.502441
1.812487	5290.221191
1.812571	5189.215332
1.812654	5321.885742
1.812738	5172.702637
1.812822	5342.406738
1.812905	5248.871094
1.812989	5259.139648
1.813072	5187.880859
1.813156	4983.264648
1.813240	5308.447266
1.813323	5359.441406
1.813407	5317.837891
1.813491	5254.032227
1.813575	5379.050781
1.813658	5300.449707
1.813742	5229.275879
1.813826	5350.536621
1.813910	5323.772949
1.813993	5300.716797
1.814077	5314.652344
1.814161	5398.842285
1.814245	5464.518555
1.814329	5515.387207
1.814413	5484.925781
1.814497	5406.433594
1.814580	5357.525391
1.814664	5341.881348
1.814748	5540.473633
1.814832	5454.636719
1.814916	5586.682129
1.815000	5589.469727
1.815084	5647.625000
1.815168	5495.393555
1.815252	5501.884277
1.815336	5578.472656
1.815420	5455.837402
1.815504	5517.654785
1.815588	5409.819336
1.815672	5633.855469
1.815756	5614.511230
1.815840	5503.026367
1.815925	5527.932617
1.816009	5585.993164
1.816093	5507.723145
1.816177	5668.905762
1.816261	5686.403320
1.816345	5707.576660
1.816429	5817.104492
1.816514	5724.135254
1.816598	5594.391113
1.816682	5729.643066
1.816766	5651.450195
1.816851	5628.463379
1.816935	5759.965332
1.817019	5630.319336
1.817104	5702.947754
1.817188	5731.435547
1.817272	5892.241699
1.817356	5652.402832
1.817441	5765.400391
1.817525	5871.012695
1.817610	5969.244141
1.817694	5876.458984
1.817778	5757.998047
1.817863	5922.288574
1.817947	5869.936523
1.818032	5913.031738
1.818116	5985.471680
1.818201	5896.442383
1.818285	5976.198242
1.818370	6136.625488
1.818454	5904.583984
1.818539	6207.977539
1.818623	5986.997559
1.818708	5843.068359
1.818792	6095.013672
1.818877	5899.810547
1.818961	5939.158691
1.819046	6033.443848
1.819131	6233.916992
1.819215	5994.871582
1.819300	5997.563477
1.819385	6132.047852
1.819469	6193.281738
1.819554	6115.425781
1.819639	6220.552246
1.819723	6248.814453
1.819808	6163.670898
1.819893	6287.024902
1.819978	6128.766602
1.820063	6219.180664
1.820147	6353.432129
1.820232	6169.654297
1.820317	6154.039063
1.820402	6182.274902
1.820487	6378.549805
1.820571	6140.096680
1.820656	6193.884766
1.820741	6134.459961
1.820826	6367.124023
1.820911	6311.340332
1.820996	6339.517578
1.821081	6156.037598
1.821166	6206.121582
1.821251	6398.458496
1.821336	6419.308105
1.821421	6389.096191
1.821506	6377.125000
1.821591	6157.360352
1.821676	6426.093262
1.821761	6545.319336
1.821846	6526.041992
1.821931	6397.475098
1.822016	6400.083496
1.822101	6548.372559
1.822186	6441.711914
1.822272	6535.333008
1.822357	6476.032715
1.822442	6504.103516
1.822527	6364.766602
1.822612	6545.663086
1.822697	6639.190918
1.822783	6619.931152
1.822868	6687.959473
1.822953	6603.247070
1.823038	6478.570801
1.823124	6637.462891
1.823209	6560.068359
1.823294	6642.585449
1.823380	6590.646973
1.823465	6600.479980
1.823550	6406.915527
1.823636	6540.243652
1.823721	6502.878418
1.823806	6799.510254
1.823892	6537.073730
1.823977	6713.843750
1.824063	6738.158691
1.824148	6631.859863
1.824233	6862.938477
1.824319	6760.280273
1.824404	6657.655273
1.824490	6515.181641
1.824575	6622.878906
1.824661	6625.433594
1.824746	6526.519531
1.824832	6786.338867
1.824918	6774.374512
1.825003	6842.099609
1.825089	6833.751465
1.825174	6915.928223
1.825260	6835.164063
1.825346	6859.397949
1.825431	6785.906738
1.825517	6904.223145
1.825603	6964.613770
1.825688	6844.114746
1.825774	6969.597656
1.825860	6700.871094
1.825945	6876.955078
1.826031	6987.911133
1.826117	6947.023438
1.826203	6931.445801
1.826288	6854.446777
1.826374	6943.657715
1.826460	7123.143066
1.826546	6966.695801
1.826632	7063.066895
1.826717	6989.718262
1.826803	7151.030762
1.826889	6973.023926
1.826975	7087.374512
1.827061	7136.742676
1.827147	7160.842285
1.827233	7112.796387
1.827319	7086.403809
1.827405	7132.133789
1.827491	7062.484375
1.827577	7248.781250
1.827663	7074.619629
1.827749	7127.528320
1.827835	7029.101074
1.827921	7067.590820
1.828007	7217.719238
1.828093	7220.154785
1.828179	7301.800293
1.828265	7117.025879
1.828351	7249.051758
1.828438	7255.079102
1.828524	7253.907715
1.828610	7245.541504
1.828696	7107.685059
1.828782	7128.116211
1.828868	7252.819824
1.828955	7492.531738
1.829041	7315.182617
1.829127	7533.242188
1.829213	7309.227539
1.829300	7282.896973
1.829386	7385.899902
1.829472	7269.770508
1.829558	7372.741699
1.829645	7195.610840
1.829731	7151.368652
1.829818	7519.929199
1.829904	7450.526367
1.829990	7503.148438
1.830077	7401.480957
1.830163	7482.790527
1.830250	7503.102539
1.830336	7225.770020
1.830422	7396.703613
1.830509	7445.697266
1.830595	7397.900391
1.830682	7525.718262
1.830768	7664.244629
1.830855	7802.726074
1.830941	7443.272461
1.831028	7703.510742
1.831115	7680.782715
1.831201	7647.321289
1.831288	7510.061035
1.831374	7469.479492
1.831461	7600.677734
1.831547	7520.737305
1.831634	7523.101074
1.831721	7518.310059
1.831807	7599.348633
1.831894	7691.087402
1.831981	7553.996094
1.832068	7781.541016
1.832154	7651.626465
1.832241	7754.016602
1.832328	7663.447754
1.832415	7765.803223
1.832501	7657.403320
1.832588	7552.609863
1.832675	7644.221191
1.832762	7771.501465
1.832849	7780.955566
1.832936	7918.877930
1.833022	7782.012695
1.833109	7905.620117
1.833196	7800.903320
1.833283	7739.016602
1.833370	7848.307617
1.833457	7907.649902
1.833544	7874.292480
1.833631	7734.023438
1.833718	7650.815430
1.833805	7742.217285
1.833892	7801.527832
1.833979	7846.572266
1.834066	8044.733398
1.834153	7883.207520
1.834240	7931.776367
1.834327	7923.377930
1.834414	7801.097656
1.834501	7945.730469
1.834589	8079.643066
1.834676	7868.466309
1.834763	8073.479980
1.834850	8036.617188
1.834937	8049.542969
1.835024	8062.463867
1.835111	7894.111328
1.835199	8091.846680
1.835286	8026.584961
1.835373	8096.341797
1.835461	8127.003906
1.835548	7898.401367
1.835635	8032.060059
1.835722	7981.060547
1.835810	8079.165527
1.835897	8074.313477
1.835984	7959.457031
1.836072	8160.409180
1.836159	8258.421875
1.836246	8140.042969
1.836334	8057.166016
1.836421	8020.409180
1.836509	8012.025391
1.836596	7985.921387
1.836684	8154.745605
1.836771	8210.125000
1.836859	8357.601563
1.836946	8200.393555
1.837034	8301.780273
1.837121	8265.030273
1.837209	8263.697266
1.837296	8042.884766
1.837384	8076.982422
1.837471	8362.328125
1.837559	8339.749023
1.837647	8324.253906
1.837734	8298.151367
1.837822	8346.326172
1.837910	8277.795898
1.837997	8248.177734
1.838085	8236.243164
1.838173	8326.806641
1.838260	8509.217773
1.838348	8461.915039
1.838436	8389.899414
1.838524	8409.738281
1.838611	8447.228516
1.838699	8364.656250
1.838787	8384.490234
1.838875	8647.869141
1.838963	8604.124023
1.839051	8285.163086
1.839138	8446.117188
1.839226	8374.206055
1.839314	8443.393555
1.839402	8618.349609
1.839490	8624.011719
1.839578	8481.613281
1.839666	8448.524414
1.839754	8566.980469
1.839842	8378.854492
1.839930	8426.825195
1.840018	8643.852539
1.840106	8691.763672
1.840194	8574.163086
1.840282	8396.748047
1.840370	8504.517578
1.840458	8531.302734
1.840546	8596.787109
1.840634	8669.288086
1.840722	8734.728516
1.840810	8620.769531
1.840898	8710.813477
1.840987	8494.926758
1.841075	8918.938477
1.841163	8590.607422
1.841251	8659.511719
1.841339	8700.282227
1.841428	8814.817383
1.841516	8634.249023
1.841604	8759.294922
1.841692	8505.048828
1.841781	8935.533203
1.841869	8863.883789
1.841957	8785.238281
1.842046	8794.350586
1.842134	8768.372070
1.842222	8816.073242
1.842311	8874.282227
1.842399	8820.246094
1.842487	8902.980469
1.842576	8743.779297
1.842664	8717.833008
1.842753	8993.306641
1.842841	8834.166992
1.842930	8885.298828
1.843018	8999.468750
1.843107	8899.948242
1.843195	9115.635742
1.843284	8900.581055
1.843372	8878.141602
1.843461	8915.214844
1.843549	8875.281250
1.843638	8929.836914
1.843726	9068.341797
1.843815	8926.959961
1.843904	8977.983398
1.843992	8868.132813
1.844081	9069.491211
1.844170	8973.644531
1.844258	8867.342773
1.844347	8876.397461
1.844436	8955.331055
1.844525	9135.551758
1.844613	9189.966797
1.844702	9055.775391
1.844791	8935.593750
1.844880	8972.558594
1.844968	9061.871094
1.845057	9102.292969
1.845146	9205.513672
1.845235	9183.096680
1.845324	9237.432617
1.845412	9106.892578
1.845501	8868.287109
1.845590	8957.514648
1.845679	9053.685547
1.845768	9247.422852
1.845857	9179.716797
1.845946	9143.392578
1.846035	9309.149414
1.846124	9095.163086
1.846213	9243.459961
1.846302	9179.290039
1.846391	9237.000000
1.846480	9259.880859
1.846569	9442.860352
1.846658	9291.698242
1.846747	9123.186523
1.846836	9271.310547
1.846925	9290.686523
1.847015	9087.478516
1.847104	9298.125977
1.847193	9293.151367
1.847282	9315.987305
1.847371	9293.633789
1.847460	9066.261719
1.847550	9196.830078
1.847639	9348.199219
1.847728	9183.448242
1.847817	9404.225586
1.847907	9329.794922
1.847996	9300.518555
1.848085	9240.012695
1.848175	9342.639648
1.848264	9146.817383
1.848353	9200.854492
1.848442	9376.284180
1.848532	9499.631836
1.848621	9165.200195
1.848711	9600.587891
1.848800	9377.178711
1.848889	9444.989258
1.848979	9491.985352
1.849068	9622.124023
1.849158	9298.387695
1.849247	9407.732422
1.849337	9323.098633
1.849426	9321.597656
1.849516	9316.634766
1.849605	9526.291016
1.849695	9216.725586
1.849785	9730.851563
1.849874	9424.811523
1.849964	9475.184570
1.850053	9546.293945
1.850143	9728.042969
1.850233	9480.981445
1.850322	9552.053711
1.850412	9522.863281
1.850502	9628.466797
1.850591	9505.974609
1.850681	9552.813477
1.850771	9426.917969
1.850861	9560.098633
1.850950	9330.645508
1.851040	9743.464844
1.851130	9572.741211
1.851220	9698.908203
1.851310	9621.424805
1.851399	9644.028320
1.851489	9673.524414
1.851579	9516.747070
1.851669	9570.395508
1.851759	9586.095703
1.851849	9484.569336
1.851939	9503.724609
1.852029	9705.542969
1.852119	9724.656250
1.852208	9630.062500
1.852298	9476.936523
1.852389	9664.850586
1.852479	9604.750000
1.852569	9493.019531
1.852659	9484.605469
1.852749	9937.440430
1.852839	9602.007813
1.852929	9679.605469
1.853019	9746.856445
1.853109	9676.489258
1.853199	9423.857422
1.853289	9583.964844
1.853379	9754.333984
1.853470	9687.448242
1.853560	9943.674805
1.853650	9694.638672
1.853740	9672.461914
1.853830	9777.405273
1.853921	9659.042969
1.854011	9856.682617
1.854101	9738.345703
1.854191	9671.545898
1.854282	9666.556641
1.854372	9867.498047
1.854462	9697.760742
1.854553	9891.770508
1.854643	9790.693359
1.854733	9634.768555
1.854824	9866.417969
1.854914	9847.685547
1.855004	9750.107422
1.855095	10105.025391
1.855185	9932.038086
1.855276	9765.959961
1.855366	10011.067383
1.855457	10074.541992
1.855547	9949.620117
1.855638	9749.400391
1.855728	9915.602539
1.855819	9955.086914
1.855909	9850.800781
1.856000	9818.415039
1.856091	9905.798828
1.856181	9976.047852
1.856272	9755.524414
1.856362	9822.355469
1.856453	9885.744141
1.856544	9877.315430
1.856634	9879.144531
1.856725	9891.225586
1.856816	9793.949219
1.856907	9847.041016
1.856997	10023.098633
1.857088	9977.082031
1.857179	9797.891602
1.857270	10001.186523
1.857360	9999.577148
1.857451	9806.815430
1.857542	9941.752930
1.857633	10022.048828
1.857724	9802.081055
1.857815	9902.840820
1.857905	9966.050781
1.857996	9841.681641
1.858087	9962.842773
1.858178	9920.331055
1.858269	9939.185547
1.858360	10039.825195
1.858451	10058.653320
1.858542	10196.715820
1.858633	9932.789063
1.858724	10104.884766
1.858815	10229.250977
1.858906	10094.823242
1.858997	9814.061523
1.859088	10231.121094
1.859179	9967.442383
1.859270	10139.364258
1.859362	10018.665039
1.859453	10241.543945
1.859544	10168.478516
1.859635	9986.626953
1.859726	9872.829102
1.859817	9969.816406
1.859909	10257.096680
1.860000	9993.792969
1.860091	10097.508789
1.860182	10119.663086
1.860273	9999.159180
1.860365	10089.239258
1.860456	10016.313477
1.860547	10079.203125
1.860639	10087.764648
1.860730	10058.991211
1.860821	10193.099609
1.860913	10018.435547
1.861004	9925.237305
1.861096	10045.736328
1.861187	10169.585938
1.861278	10154.387695
1.861370	10230.721680
1.861461	10191.792969
1.861553	10020.712891
1.861644	10174.960938
1.861736	10295.281250
1.861827	10164.912109
1.861919	10085.384766
1.862010	10056.672852
1.862102	9983.958984
1.862193	10131.291992
1.862285	10126.277344
1.862376	10165.254883
1.862468	10177.153320
1.862560	10074.031250
1.862651	10146.820313
1.862743	10283.838867
1.862835	10305.852539
1.862926	10321.097656
1.863018	10049.029297
1.863110	10338.054688
1.863201	10258.673828
1.863293	10213.103516
1.863385	10005.407227
1.863477	10051.081055
1.863569	10015.695313
1.863660	10128.877930
1.863752	10171.132813
1.863844	10257.251953
1.863936	10123.990234
1.864028	10156.102539
1.864120	10029.646484
1.864212	10210.176758
1.864303	10110.731445
1.864395	10200.147461
1.864487	10029.936523
1.864579	10062.031250
1.864671	9912.119141
1.864763	10230.653320
1.864855	10060.545898
1.864947	10261.048828
1.865039	10394.124023
1.865131	10247.645508
1.865223	10030.503906
1.865315	10133.252930
1.865408	10060.936523
1.865500	10140.088867
1.865592	10155.282227
1.865684	10163.742188
1.865776	10215.927734
1.865868	10103.296875
1.865960	10222.729492
1.866053	10012.628906
1.866145	10216.080078
1.866237	10083.352539
1.866329	10162.384766
1.866421	10033.068359
1.866514	10054.970703
1.866606	10019.763672
1.866698	10189.431641
1.866791	9956.098633
1.866883	9994.785156
1.866975	10040.172852
1.867068	10041.914063
1.867160	10093.990234
1.867252	9971.580078
1.867345	10127.644531
1.867437	10072.349609
1.867530	10047.254883
1.867622	10045.638672
1.867715	10181.473633
1.867807	10055.814453
1.867900	10104.467773
1.867992	10035.826172
1.868085	9906.899414
1.868177	10156.539063
1.868270	10154.905273
1.868362	10116.436523
1.868455	10175.076172
1.868547	10150.005859
1.868640	10145.026367
1.868733	9905.790039
1.868825	9934.310547
1.868918	10009.658203
1.869011	10295.712891
1.869103	10140.214844
1.869196	10071.707031
1.869289	10066.743164
1.869381	10175.436523
1.869474	10130.350586
1.869567	10075.253906
1.869660	10140.456055
1.869752	9901.640625
1.869845	9923.428711
1.869938	9945.208984
1.870031	10120.578125
1.870124	10292.551758
1.870216	10023.860352
1.870309	10012.235352
1.870402	10240.870117
1.870495	10119.114258
1.870588	9987.390625
1.870681	9949.096680
1.870774	10047.538086
1.870867	9995.909180
1.870960	9954.297852
1.871053	10229.345703
1.871146	10024.413086
1.871239	9739.576172
1.871332	10034.514648
1.871425	10026.239258
1.871518	9921.382813
1.871611	10039.663086
1.871704	10031.389648
1.871797	10106.339844
1.871891	9981.567383
1.871984	10073.139648
1.872077	9998.320313
1.872170	10053.266602
1.872263	10171.390625
1.872356	9807.262695
1.872450	10008.515625
1.872543	9767.538086
1.872636	9922.196289
1.872729	10016.981445
1.872823	9935.619141
1.872916	9910.764648
1.873009	9849.376953
1.873103	9997.253906
1.873196	10078.666016
1.873289	9901.070313
1.873383	10062.145508
1.873476	9785.033203
1.873569	9876.381836
1.873663	9957.747070
1.873756	9773.677734
1.873850	9762.154297
1.873943	10161.885742
1.874037	9815.386719
1.874130	9992.843750
1.874224	9974.662109
1.874317	9747.678711
1.874411	9878.666016
1.874504	9913.523438
1.874598	9829.109375
1.874691	10072.636719
1.874785	9898.806641
1.874879	9953.504883
1.874972	9779.749023
1.875066	9798.037109
1.875160	9942.084961
1.875253	9930.558594
1.875347	9637.808594
1.875441	9930.672852
1.875534	9912.538086
1.875628	9920.865234
1.875722	9869.672852
1.875816	9973.875000
1.875909	9783.865234
1.876003	9719.500000
1.876097	9883.151367
1.876191	9564.401367
1.876285	9873.367188
1.876378	9799.120117
1.876472	9734.802734
1.876566	9749.745117
1.876660	9860.415039
1.876754	9815.921875
1.876848	9692.241211
1.876942	9621.393555
1.877036	9722.114258
1.877130	9803.012695
1.877224	9679.413086
1.877318	9595.420898
1.877412	9788.393555
1.877506	9839.560547
1.877600	9574.313477
1.877694	9694.699219
1.877788	9689.845703
1.877882	9605.931641
1.877976	9769.071289
1.878070	9807.018555
1.878165	9798.856445
1.878259	9672.180664
1.878353	9680.500000
1.878447	9665.779297
1.878541	9769.521484
1.878635	9606.741211
1.878730	9605.196289
1.878824	9462.227539
1.878918	9694.182617
1.879012	9580.835938
1.879107	9605.593750
1.879201	9590.902344
1.879295	9451.335938
1.879390	9538.531250
1.879484	9589.561523
1.879578	9601.158203
1.879673	9514.225586
1.879767	9653.891602
1.879862	9442.220703
1.879956	9368.485352
1.880050	9242.260742
1.880145	9513.141602
1.880239	9337.718750
1.880334	9523.204102
1.880428	9419.994141
1.880523	9247.950195
1.880617	9295.646484
1.880712	9494.130859
1.880807	9272.990234
1.880901	9310.826172
1.880996	9270.007813
1.881090	9314.384766
1.881185	9339.092773
1.881280	9389.994141
1.881374	9182.179688
1.881469	9288.750000
1.881564	9306.898438
1.881658	9328.313477
1.881753	9294.086914
1.881848	9266.416016
1.881943	9448.130859
1.882037	9400.818359
1.882132	9255.406250
1.882227	9319.316406
1.882322	9216.465820
1.882416	9041.733398
1.882511	9180.818359
1.882606	9365.608398
1.882701	9050.441406
1.882796	9133.921875
1.882891	8848.289063
1.882986	9046.076172
1.883081	9315.632813
1.883176	8987.666992
1.883271	9165.750000
1.883365	9030.467773
1.883461	9032.278320
1.883555	9037.351563
1.883650	8996.753906
1.883746	9119.245117
1.883841	9010.165039
1.883936	9041.321289
1.884031	8955.108398
1.884126	8921.074219
1.884221	8991.335938
1.884316	9051.798828
1.884411	8867.903320
1.884506	8928.366211
1.884602	8972.526367
1.884697	8971.083008
1.884792	8758.015625
1.884887	8886.817383
1.884982	9009.067383
1.885078	8975.077148
1.885173	8866.262695
1.885268	8923.393555
1.885363	8860.158203
1.885459	8822.960938
1.885554	8580.924805
1.885649	8839.629883
1.885745	8935.724609
1.885840	8882.287109
1.885936	8672.891602
1.886031	8674.746094
1.886126	8689.592773
1.886222	8551.783203
1.886317	8550.407227
1.886413	8545.786133
1.886508	8768.410156
1.886604	8611.200195
1.886699	8564.380859
1.886795	8365.071289
1.886890	8720.595703
1.886986	8550.518555
1.887082	8558.873047
1.887177	8583.438477
1.887273	8637.175781
1.887368	8360.245117
1.887464	8358.901367
1.887560	8419.128906
1.887655	8252.529297
1.887751	8474.733398
1.887847	8408.589844
1.887942	8517.347656
1.888038	8402.647461
1.888134	8485.470703
1.888230	8409.656250
1.888325	8288.554688
1.888421	8157.784668
1.888517	8470.307617
1.888613	8297.496094
1.888709	8425.537109
1.888804	8388.609375
1.888900	8316.126953
1.888996	8295.393555
1.889092	8054.869629
1.889188	8221.625977
1.889284	8165.373047
1.889380	8386.980469
1.889476	8143.365723
1.889572	8274.473633
1.889668	8169.809570
1.889764	8068.407227
1.889860	8041.284668
1.889956	8049.674316
1.890052	8180.690918
1.890148	8050.312012
1.890244	8052.243652
1.890340	8125.136230
1.890436	8007.728516
1.890532	8157.992676
1.890628	8169.576660
1.890725	8126.357910
1.890821	8163.726074
1.890917	7878.839844
1.891013	8019.336914
1.891109	7963.283203
1.891206	7971.665527
1.891302	7835.128418
1.891398	7808.109863
1.891495	7855.144043
1.891591	7982.632813
1.891687	7707.794434
1.891783	7732.297363
1.891880	7827.571289
1.891976	7926.031250
1.892072	7802.540527
1.892169	7888.109375
1.892265	7771.094238
1.892362	7657.331055
1.892458	7691.455566
1.892555	7748.063965
1.892651	7383.735840
1.892748	7735.934082
1.892844	7564.449707
1.892941	7791.254395
1.893037	7574.860840
1.893134	7618.590332
1.893230	7514.644531
1.893327	7410.731934
1.893423	7537.899414
1.893520	7645.774902
1.893616	7721.536133
1.893713	7627.278809
1.893810	7693.397461
1.893906	7281.740723
1.894003	7533.834473
1.894100	7583.908691
1.894197	7348.734863
1.894293	7293.079102
1.894390	7400.835938
1.894487	7261.903809
1.894584	7395.252930
1.894680	7330.018066
1.894777	7300.023438
1.894874	7260.434082
1.894971	7169.645996
1.895068	7341.304688
1.895165	7112.944824
1.895262	7290.955566
1.895358	7280.187012
1.895455	7231.043457
1.895552	7175.520508
1.895649	7148.789551
1.895746	7275.504395
1.895843	7162.470703
1.895940	7129.362793
1.896037	7125.020996
1.896134	7095.124023
1.896231	7106.759277
1.896328	7108.809570
1.896425	6960.787109
1.896523	7049.058105
1.896620	7047.924316
1.896717	7030.833008
1.896814	7099.903809
1.896911	6987.095703
1.897008	7017.871582
1.897105	6978.469727
1.897203	7273.916504
1.897300	6953.906250
1.897397	7093.054688
1.897494	6887.921875
1.897591	7049.343750
1.897689	6943.060547
1.897786	6795.395020
1.897883	6832.525879
1.897981	6856.905762
1.898078	6890.830078
1.898175	6867.435059
1.898273	6939.545898
1.898370	6753.829102
1.898468	6730.467285
1.898565	6738.929688
1.898662	6753.751953
1.898760	6784.473145
1.898857	6627.551270
1.898955	6601.047852
1.899052	6778.020508
1.899150	6652.961914
1.899247	6893.432129
1.899345	6749.329102
1.899442	6808.608887
1.899540	6763.041016
1.899638	6584.090820
1.899735	6436.953613
1.899833	6610.548340
1.899930	6584.088379
1.900028	6490.981445
1.900126	6778.731445
1.900223	6431.778320
1.900321	6583.025391
1.900419	6553.418457
1.900517	6415.988770
1.900614	6557.652344
1.900712	6363.196777
1.900810	6381.193359
1.900908	6548.149414
1.901006	6445.688965
1.901103	6416.135742
1.901201	6567.165527
1.901299	6255.699707
1.901397	6552.384766
1.901495	6386.676758
1.901593	6284.340332
1.901691	6242.178711
1.901789	6260.164063
1.901887	6411.047852
1.901984	6368.885742
1.902083	6390.004883
1.902181	6363.674316
1.902279	6299.403320
1.902377	6178.239746
1.902475	6161.439453
1.902573	6315.328613
1.902671	6162.617676
1.902769	6148.986816
1.902867	6081.652344
1.902965	6128.055664
1.903063	6130.228027
1.903161	6192.397461
1.903260	6036.695313
1.903358	6048.351074
1.903456	6132.596680
1.903554	6068.495605
1.903653	5966.551758
1.903751	6217.969727
1.903849	6011.945313
1.903947	5969.979492
1.904045	5981.631836
1.904144	5864.020020
1.904242	6099.490723
1.904341	5962.987305
1.904439	5921.062500
1.904537	5948.465820
1.904636	5916.007324
1.904734	5990.646973
1.904832	5870.015625
1.904931	5856.476563
1.905029	5855.534180
1.905128	6046.597656
1.905226	5872.533203
1.905325	5789.776367
1.905423	5719.630371
1.905522	5901.154785
1.905620	5768.111328
1.905719	5609.953613
1.905818	5703.373535
1.905916	5815.625000
1.906015	5839.833984
1.906114	5757.187500
1.906212	5781.397461
1.906311	5683.079102
1.906410	5675.882324
1.906508	5621.580078
1.906607	5727.437012
1.906706	5582.096680
1.906804	5527.834961
1.906903	5636.793945
1.907002	5635.886719
1.907101	5493.791992
1.907200	5599.566406
1.907298	5633.166992
1.907397	5494.276367
1.907496	5556.102051
1.907595	5558.343262
1.907694	5563.717773
1.907793	5468.802734
1.907892	5433.454590
1.907991	5413.782227
1.908090	5347.129395
1.908188	5427.700195
1.908288	5451.878418
1.908386	5692.084961
1.908486	5290.470703
1.908584	5370.998047
1.908684	5348.227539
1.908783	5419.333008
1.908882	5409.075195
1.908981	5486.403320
1.909080	5441.736328
1.909179	5293.895020
1.909278	5249.272949
1.909377	5454.739258
1.909477	5172.573730
1.909576	5359.236328
1.909675	5311.507813
1.909774	5273.166016
1.909873	5141.134277
1.909973	5343.295898
1.910072	5248.763672
1.910171	5085.580078
1.910271	5037.940430
1.910370	5280.560059
1.910469	5098.727051
1.910568	5219.582520
1.910668	5243.697266
1.910767	5274.042480
1.910867	5248.246582
1.910966	4988.617188
1.911065	5000.284180
1.911165	5177.141602
1.911264	5173.191895
1.911364	5029.028809
1.911463	5003.296387
1.911563	5092.822754
1.911662	5004.800293
1.911762	5032.020020
1.911862	5152.631348
1.911961	4890.320801
1.912061	5051.376953
1.912160	4994.550293
1.912260	4962.632813
1.912359	5014.718750
1.912459	5107.222656
1.912559	4789.194336
1.912659	4947.000977
1.912758	4772.108398
1.912858	4877.024902
1.912958	4817.190430
1.913057	4903.421387
1.913157	4778.357422
1.913257	4973.289063
1.913357	4835.830566
1.913457	4841.263184
1.913556	4908.790527
1.913656	4948.357422
1.913756	4823.406250
1.913856	4760.562500
1.913956	4793.927734
1.914056	4914.148438
1.914156	4730.347168
1.914256	4723.382813
1.914356	4840.455566
1.914456	4771.468262
1.914556	4795.499023
1.914656	4788.528320
1.914756	4852.833984
1.914856	4672.347168
1.914956	4677.790527
1.915056	4677.037598
1.915156	4509.053223
1.915256	4728.170410
1.915356	4612.861816
1.915456	4578.069824
1.915557	4694.938477
1.915657	4610.634277
1.915757	4591.328613
1.915857	4584.402832
1.915957	4729.030762
1.916057	4613.850586
1.916158	4699.681152
1.916258	4538.171875
1.916358	4559.077148
1.916458	4521.258301
1.916559	4480.361816
1.916659	4606.306152
1.916759	4617.920410
1.916860	4434.960449
1.916960	4483.652832
1.917061	4526.154785
1.917161	4460.601074
1.917262	4441.364258
1.917362	4551.742676
1.917462	4476.959473
1.917563	4439.219238
1.917663	4460.095703
1.917764	4339.104004
1.917864	4381.573242
1.917965	4516.517578
1.918066	4303.101074
1.918166	4552.046875
1.918267	4477.358887
1.918367	4590.633301
1.918468	4303.411133
1.918569	4435.156738
1.918669	4412.886230
1.918770	4446.044434
1.918871	4402.229980
1.918971	4496.938477
1.919072	4428.509766
1.919173	4252.407715
1.919273	4260.952637
1.919374	4334.090332
1.919475	4274.958008
1.919576	4397.270020
1.919677	4301.251953
1.919777	4300.559082
1.919878	4250.690430
1.919979	4259.224609
1.920080	4381.440430
1.920181	4196.412109
1.920282	4131.233887
1.920383	4216.558105
1.920484	4185.173340
1.920585	4212.129883
1.920686	4156.199707
1.920787	4088.010498
1.920888	4286.810059
1.920989	4169.532227
1.921090	4217.942383
1.921191	4272.470703
1.921292	4054.053711
1.921393	4117.789063
1.921494	4212.160156
1.921595	4248.263184
1.921696	4394.681152
1.921798	4161.099121
1.921899	3945.973633
1.922000	4101.559082
1.922101	4088.647705
1.922202	3996.124268
1.922304	4004.665527
1.922405	4010.142822
1.922506	4079.892822
1.922607	4045.573486
1.922709	4038.802490
1.922810	4077.921631
1.922911	4071.147461
1.923013	3984.861572
1.923114	3965.873291
1.923216	4056.951416
1.923317	3998.219971
1.923418	4055.644531
1.923520	3944.984131
1.923621	4005.453857
1.923723	4010.918213
1.923824	4031.652100
1.923926	3918.012451
1.924027	4057.833008
1.924129	3935.067139
1.924230	4010.741211
1.924332	3933.799561
1.924433	3966.730469
1.924535	3993.548828
1.924637	3913.596436
1.924738	3973.963135
1.924840	3991.619141
1.924942	3939.145264
1.925043	3886.688232
1.925145	3846.439453
1.925247	3894.578125
1.925348	3769.027588
1.925450	3881.137695
1.925552	3779.996826
1.925654	3879.887207
1.925756	3705.700195
1.925857	3799.481445
1.925959	3753.209717
1.926061	3758.691895
1.926163	3831.118164
1.926265	3787.906006
1.926367	3857.261719
1.926468	3795.809814
1.926570	3816.485596
1.926672	3590.871094
1.926774	3772.695068
1.926876	3875.432129
1.926978	3753.245117
1.927080	3700.984619
1.927182	3776.340332
1.927284	3793.957520
1.927386	3766.012207
1.927488	3807.917969
1.927591	3719.256836
1.927693	3803.655273
1.927795	3678.601318
1.927897	3711.389648
1.927999	3747.201660
1.928101	3804.237793
1.928203	3682.297119
1.928306	3642.278564
1.928408	3693.239258
1.928510	3701.739258
1.928612	3679.924072
1.928715	3803.591797
1.928817	3706.010498
1.928919	3729.651611
1.929022	3780.548340
1.929124	3692.104004
1.929226	3585.518066
1.929329	3612.190674
1.929431	3672.155273
1.929533	3607.999512
1.929636	3643.734375
1.929738	3670.379883
1.929841	3706.093018
1.929943	3632.898193
1.930046	3680.703369
1.930148	3619.631592
1.930251	3613.001465
1.930353	3536.845459
1.930456	3708.555420
1.930558	3571.968994
1.930661	3559.307373
1.930764	3631.237549
1.930866	3488.688477
1.930969	3488.126221
1.931072	3418.114502
1.931174	3559.458984
1.931277	3679.627686
1.931380	3576.419922
1.931482	3554.720459
1.931585	3566.215820
1.931688	3520.391602
1.931791	3516.808105
1.931893	3489.100342
1.931996	3518.689453
1.932099	3554.298340
1.932202	3445.214600
1.932305	3498.906006
1.932407	3531.487305
1.932510	3383.294189
1.932613	3506.250732
1.932716	3391.238770
1.932819	3396.714600
1.932922	3465.415039
1.933025	3503.990234
1.933128	3440.219238
1.933231	3409.571289
1.933334	3481.233887
1.933437	3411.480469
1.933540	3374.835938
1.933643	3404.365723
1.933746	3442.906738
1.933849	3472.415771
1.933953	3453.820313
1.934056	3435.230713
1.934159	3320.488037
1.934262	3295.916992
1.934365	3310.405518
1.934468	3421.001709
1.934572	3282.310791
1.934675	3338.829834
1.934778	3494.398682
1.934881	3382.776855
1.934985	3358.222656
1.935088	3480.706055
1.935191	3525.146729
1.935295	3419.590820
1.935398	3410.041992
1.935501	3484.458984
1.935605	3423.933350
1.935708	3297.477539
1.935812	3314.928955
1.935915	3353.352051
1.936018	3544.571777
1.936122	3202.481934
1.936225	3321.777100
1.936329	3411.085693
1.936432	3320.705811
1.936536	3299.213379
1.936639	3322.628174
1.936743	3432.828857
1.936847	3405.343506
1.936950	3321.020996
1.937054	3305.528076
1.937157	3418.650879
1.937261	3367.261719
1.937365	3354.758789
1.937468	3363.186035
1.937572	3195.258789
1.937676	3188.766357
1.937779	3457.176758
1.937883	3133.961426
1.937987	3339.565186
1.938091	3318.120117
1.938195	3356.404541
1.938298	3358.848877
1.938402	3298.603760
1.938506	3244.347656
1.938610	3139.377197
1.938714	3273.138184
1.938818	3215.928711
1.938922	3257.168457
1.939026	3182.086182
1.939130	3256.117676
1.939234	3294.349609
1.939337	3135.833984
1.939442	3248.581543
1.939546	3233.157959
1.939650	3319.038818
1.939754	3142.747803
1.939858	3312.010986
1.939962	3266.807617
1.940066	3281.167969
1.940170	3209.190918
1.940274	3220.579102
1.940378	3205.179443
1.940482	3213.588867
1.940587	3189.270020
1.940691	3185.780762
1.940795	3173.370361
1.940899	3199.621094
1.941004	3169.373291
1.941108	3195.615967
1.941212	3278.321533
1.941316	3179.726318
1.941421	3158.414551
1.941525	3125.226807
1.941629	3225.711670
1.941734	3228.160889
1.941838	3189.039063
1.941943	3114.303711
1.942047	3125.674561
1.942152	3163.752441
1.942256	3118.730957
1.942360	3144.929932
1.942465	3126.623779
1.942569	3197.302246
1.942674	3098.925537
1.942778	3231.850342
1.942883	3157.215820
1.942988	3088.533203
1.943092	3123.597656
1.943197	3111.241211
1.943301	3300.345947
1.943406	3160.593262
1.943511	3065.310303
1.943616	3209.913086
1.943720	3206.434326
1.943825	3049.025391
1.943930	3089.969482
1.944034	3071.715332
1.944139	3015.002441
1.944244	3061.848877
1.944349	3268.402832
1.944453	3214.642822
1.944558	3302.830322
1.944663	2968.224121
1.944768	3136.232422
1.944873	3120.948975
1.944978	3123.400391
1.945083	3049.033936
1.945188	3098.760010
1.945293	3086.445557
1.945397	3127.290039
1.945503	3100.212158
1.945608	3093.807373
1.945712	3173.001953
1.945818	2983.615967
1.945922	3151.322754
1.946028	3000.354004
1.946133	3064.763428
1.946238	3020.030029
1.946343	3049.030029
1.946448	3048.537842
1.946553	2962.558838
1.946658	2994.501465
1.946764	3108.945801
1.946869	2996.480957
1.946974	3060.807373
1.947079	3077.985840
1.947184	3056.874023
1.947290	3041.657959
1.947395	3076.495117
1.947500	3102.490234
1.947606	3081.387695
1.947711	3072.062500
1.947816	2986.245117
1.947922	3106.370117
1.948027	3041.162842
1.948133	2993.620850
1.948238	3063.702637
1.948343	3054.388672
1.948449	2980.413818
1.948554	3006.381592
1.948660	3035.279297
1.948765	2996.597168
1.948871	3025.486816
1.948976	3016.187744
1.949082	2983.399902
1.949187	3094.483887
1.949293	3132.145264
1.949399	3025.979736
1.949504	2963.865967
1.949610	2931.112793
1.949716	2951.174561
1.949821	3079.754150
1.949927	2976.614990
1.950033	3069.962891
1.950138	2978.585205
1.950244	3013.278564
1.950350	2945.385010
1.950456	2968.351318
1.950562	3011.818604
1.950667	3020.120117
1.950773	2987.415039
1.950879	2992.789063
1.950985	2951.315186
1.951091	2983.040039
1.951197	2973.777344
1.951303	3008.414795
1.951409	2972.816650
1.951514	2925.528076
1.951620	2895.804932
1.951726	2983.074463
1.951832	3020.605957
1.951939	2990.881592
1.952044	3086.863037
1.952150	3010.374268
1.952257	2925.143555
1.952363	2994.792969
1.952469	3023.521729
1.952575	2944.171631
1.952681	2943.695801
1.952787	2922.781250
1.952893	2995.293701
1.953000	2948.107178
1.953106	3032.265625
1.953212	3025.939941
1.953318	2999.193359
1.953424	2978.289551
1.953531	3027.389893
1.953637	2939.417969
1.953743	2936.027344
1.953850	3110.461670
1.953956	2961.310791
1.954062	3019.116211
1.954169	2939.957520
1.954275	2971.528320
1.954382	2869.100342
1.954488	2889.022949
1.954594	2856.525879
1.954701	2952.139648
1.954807	2916.731689
1.954914	2954.095947
1.955020	3058.377441
1.955127	2842.580322
1.955234	2987.572266
1.955340	2888.198486
1.955447	2937.169189
1.955553	3018.107666
1.955660	2793.769531
1.955767	2938.651855
1.955873	2941.083252
1.955980	2885.398682
1.956087	2919.795654
1.956193	2913.513916
1.956300	2956.608154
1.956407	2909.668457
1.956514	2949.845459
1.956620	3019.038818
1.956727	2922.769775
1.956834	2896.179443
1.956941	2921.824951
1.957048	3043.196533
1.957154	2909.278076
1.957261	2882.706787
1.957368	3004.025635
1.957475	2983.245850
1.957582	2895.802490
1.957689	2985.179443
1.957796	3004.981201
1.957903	2882.809082
1.958010	2917.104736
1.958117	3041.176514
1.958224	2835.076660
1.958331	2935.958008
1.958438	2970.222900
1.958545	2923.430908
1.958652	2905.593994
1.958759	2913.804932
1.958867	2979.874512
1.958974	2886.829102
1.959081	2973.126709
1.959188	3004.454346
1.959295	2934.579590
1.959403	2864.727051
1.959510	2904.727783
1.959617	2858.020996
1.959724	2843.112061
1.959832	2995.762695
1.959939	2859.523193
1.960046	2911.043701
1.960154	2769.086670
1.960261	2875.458008
1.960368	2947.156494
1.960476	2839.895264
1.960583	2943.317627
1.960690	3026.510742
1.960798	2899.095459
1.960905	2979.384521
1.961013	2869.320557
1.961120	2984.187256
1.961228	2871.275146
1.961336	2870.810791
1.961443	2850.173340
1.961551	2895.814697
1.961658	2964.489014
1.961766	2978.411865
1.961874	2949.129883
1.961981	2934.255127
1.962089	2985.603760
1.962197	2956.334717
1.962304	2932.831299
1.962412	2984.155029
1.962520	2946.268555
1.962627	2951.545410
1.962735	2861.903076
1.962843	2913.204834
1.962951	2826.472900
1.963058	2998.509033
1.963166	2822.684082
1.963274	2934.311768
1.963382	2833.264648
1.963490	2907.504883
1.963598	2924.270020
1.963706	2912.308350
1.963814	2960.655029
1.963922	2891.267822
1.964030	2873.575684
1.964138	2870.240479
1.964246	2981.697266
1.964354	2909.482178
1.964462	2857.372070
1.964570	2902.803711
1.964678	2824.900146
1.964786	2867.454834
1.964894	2875.591797
1.965002	2777.664551
1.965110	2946.312744
1.965219	2894.255127
1.965327	2994.066406
1.965435	2933.423828
1.965543	2895.714355
1.965651	2961.111816
1.965760	2972.085693
1.965868	2891.445801
1.965976	3036.957764
1.966084	2773.172363
1.966193	2892.903564
1.966301	2912.461914
1.966410	2972.061035
1.966518	2862.898438
1.966626	2913.907471
1.966735	2942.026855
1.966843	2932.974854
1.966952	2889.627197
1.967060	2952.029297
1.967169	2817.260254
1.967277	2911.078369
1.967386	2827.773438
1.967494	2793.045166
1.967603	2861.122803
1.967711	3003.407227
1.967820	2891.595947
1.967928	2839.755371
1.968037	2933.463135
1.968146	2890.191650
1.968254	2781.323486
1.968363	2914.925537
1.968472	2860.270996
1.968580	2851.253906
1.968689	2847.941650
1.968798	2927.289795
1.968907	2926.815674
1.969015	2886.449951
1.969124	2945.810547
1.969233	2888.363770
1.969342	2916.376465
1.969451	2935.836914
1.969560	2852.795654
1.969669	2886.493408
1.969777	2866.102783
1.969886	2888.404297
1.969995	2936.305908
1.970104	2927.295898
1.970213	2878.468262
1.970322	3014.508057
1.970431	2937.247559
1.970540	2840.111328
1.970649	2930.611328
1.970758	2844.875488
1.970868	2983.651855
1.970977	2852.477295
1.971086	2880.421875
1.971195	2933.918945
1.971304	2882.328613
1.971413	2847.790527
1.971522	2892.750244
1.971632	2880.928223
1.971741	2888.975098
1.971850	2865.807617
1.971959	2865.343506
1.972068	2881.898438
1.972178	2847.398926
1.972287	2875.293457
1.972396	2883.333008
1.972506	2837.511230
1.972615	2970.259521
1.972724	2949.942139
1.972834	2889.964844
1.972943	2982.980469
1.973053	2945.676025
1.973162	2902.719971
1.973272	2978.699219
1.973381	2975.385498
1.973491	2839.037354
1.973600	2832.916992
1.973710	2852.265381
1.973819	2860.290771
1.973929	2956.003418
1.974039	2873.505127
1.974148	2972.012207
1.974258	2830.163818
1.974367	2883.416016
1.974477	2970.567627
1.974587	2786.398682
1.974697	2932.873291
1.974806	2926.748047
1.974916	2898.027832
1.975026	2869.316650
1.975135	2868.851807
1.975245	2820.392090
1.975355	2808.643799
1.975465	2949.303711
1.975575	2835.951904
1.975685	2849.599121
1.975794	2981.720947
1.975904	2981.237549
1.976014	2865.133789
1.976124	2833.654297
1.976234	2861.385986
1.976344	2829.916992
1.976454	2868.912842
1.976564	2967.068359
1.976674	2977.856445
1.976784	2811.181641
1.976894	2855.787598
1.977004	2852.508789
1.977114	2897.093262
1.977224	2885.363770
1.977335	2884.895996
1.977445	2915.383057
1.977555	2912.096680
1.977665	2984.766846
1.977775	2857.710938
1.977885	2890.994629
1.977996	2983.315186
1.978106	2977.208740
1.978216	2973.915039
1.978327	2959.380859
1.978437	2950.470947
1.978547	2947.183105
1.978658	2834.342529
1.978768	2859.160400
1.978878	2923.284180
1.978989	3018.271729
1.979099	3009.360596
1.979210	2874.146973
1.979320	2915.775635
1.979430	2977.031982
1.979541	2833.472900
1.979651	2880.697754
1.979762	2916.689209
1.979872	2930.236328
1.979983	2912.939453
1.980094	2850.797852
1.980204	2883.967773
1.980315	2821.850830
1.980425	2975.490967
1.980536	2921.782959
1.980647	2856.889160
1.980757	2828.421387
1.980868	2990.360596
1.980979	2905.890137
1.981090	2855.035645
1.981200	2829.385254
1.981311	2778.559570
1.981422	2850.848877
1.981533	2802.833252
1.981644	2958.998535
1.981754	2896.999023
1.981865	2972.017822
1.981976	2971.535645
1.982087	2940.308838
1.982198	2981.749512
1.982309	2936.560547
1.982420	2955.639404
1.982531	2882.537842
1.982642	2909.997070
1.982753	2945.823975
1.982864	2895.093750
1.982975	2953.242188
1.983086	2944.390137
1.983197	2963.445557
1.983308	2840.205322
1.983419	2931.798828
1.983530	2828.127197
1.983642	2855.554443
1.983753	2908.066162
1.983864	2996.801514
1.983975	2954.506104
1.984086	2889.929688
1.984198	2819.801514
1.984309	2975.354980
1.984420	2938.661133
1.984532	2901.979004
1.984643	2937.707031
1.984754	2920.525635
1.984865	2997.993896
1.984977	2927.927246
1.985088	2963.627686
1.985200	2860.201416
1.985311	2954.320068
1.985422	2864.835693
1.985534	2875.494385
1.985645	2886.149658
1.985757	2932.941650
1.985868	2932.465576
1.985980	2948.664307
1.986091	2978.750977
1.986203	2922.702637
1.986315	2988.895020
1.986426	2805.105713
1.986538	2832.419189
1.986650	3001.321533
1.986761	2898.122803
1.986873	2897.652344
1.986985	2936.032959
1.987096	2985.499512
1.987208	2940.627686
1.987320	2890.223145
1.987432	2898.073730
1.987543	2941.968262
1.987655	2891.587646
1.987767	2924.381104
1.987879	2874.019775
1.987991	2956.683594
1.988103	2928.497803
1.988214	2958.493408
1.988326	2938.625244
1.988438	2993.532471
1.988550	2898.907959
1.988662	3023.011719
1.988774	2945.020264
1.988886	2933.472168
1.988998	2805.714600
1.989110	2874.422119
1.989222	2968.001709
1.989334	2867.957031
1.989447	2991.924316
1.989559	2914.025635
1.989671	2888.673828
1.989783	2968.355713
1.989895	2887.735352
1.990007	3017.124023
1.990119	2975.196533
1.990232	2905.662354
1.990344	2921.759766
1.990456	2893.673584
1.990568	2898.724854
1.990681	2923.095947
1.990793	2930.900391
1.990905	2974.573730
1.991018	2885.805664
1.991130	2921.196533
1.991242	2851.771973
1.991355	2834.763184
1.991467	2889.444580
1.991580	2897.245117
1.991692	2894.018066
1.991805	2860.478516
1.991917	2967.470947
1.992030	2909.136475
1.992142	2850.820801
1.992255	3056.905273
1.992367	2885.690186
1.992480	2912.751709
1.992592	2870.989014
1.992705	2785.204834
1.992818	3013.145752
1.992930	2974.137939
1.993043	2841.614502
1.993156	2912.662598
1.993269	2738.942871
1.993381	2840.229004
1.993494	2806.778564
1.993607	2853.048584
1.993720	2852.584717
1.993832	2915.318359
1.993945	2953.305908
1.994058	2864.927734
1.994171	3037.483154
1.994284	2899.693359
1.994397	2912.949219
1.994510	2887.770264
1.994623	2936.703369
1.994736	2889.575439
1.994848	2894.593018
1.994962	2762.446533
1.995075	2885.423340
1.995188	2876.727051
1.995301	2950.290771
1.995414	2916.913574
1.995527	2878.064941
1.995640	2792.639404
1.995753	2742.863037
1.995866	2972.549805
1.995979	2950.152588
1.996092	3009.926025
1.996206	2902.641113
1.996319	2904.906982
1.996432	2877.060059
1.996545	2950.491211
1.996659	2859.704834
1.996772	2766.211670
1.996885	2924.430664
1.996999	2951.307129
1.997112	2866.049072
1.997225	2840.973877
1.997339	2927.996094
1.997452	2949.387451
1.997565	2929.776611
1.997679	2847.323242
1.997792	2844.127930
1.997906	2805.421875
1.998019	2908.751953
1.998133	2870.047852
1.998246	2918.726807
1.998360	2852.734619
1.998473	2871.376709
1.998587	2996.443604
1.998700	2971.398926
1.998814	2976.371582
1.998928	2902.240234
1.999041	2806.315186
1.999155	2934.017334
1.999269	2761.780518
1.999382	2794.041748
1.999496	2861.723389
1.999610	2945.732910
1.999724	2909.834229
1.999838	2814.016357
1.999951	2802.663818
2.000065	2881.181396
2.000179	2921.554443
2.000293	2882.966064
2.000407	2757.289063
2.000521	2925.571045
2.000635	2851.627197
2.000748	2965.427246
2.000862	2842.538574
2.000976	2850.235107
2.001091	2779.070557
2.001204	2941.746582
2.001318	2791.757813
2.001432	2864.687012
2.001547	2831.611084
2.001661	2839.301025
2.001775	2952.935791
2.001889	2675.407715
2.002003	2951.974365
2.002117	2905.334229
2.002231	2861.424072
2.002346	2795.812988
2.002460	2863.206299
2.002574	2862.739990
2.002688	2829.717285
2.002802	2818.406006
2.002917	2823.371338
2.003031	2820.199951
2.003145	2901.079346
2.003260	2873.498535
2.003374	2873.030518
2.003489	2883.402588
2.003603	2826.032959
2.003717	2868.917969
2.003832	2887.411377
2.003946	2903.190186
2.004061	2859.393311
2.004175	2812.903076
2.004290	2936.961426
2.004404	2876.941406
2.004519	2784.468994
2.004633	2827.304199
2.004748	2788.972168
2.004862	2799.336426
2.004977	2825.922852
2.005092	2901.168701
2.005206	2741.198242
2.005321	2873.194336
2.005436	2737.602783
2.005550	2869.556396
2.005665	2817.758545
2.005780	2847.012207
2.005895	2838.446289
2.006010	2859.585938
2.006124	2794.323975
2.006239	2963.930420
2.006354	2779.918701
2.006469	2792.958496
2.006584	2849.162842
2.006699	2824.419922
2.006814	2783.501709
2.006928	2739.900146
2.007043	2801.468750
2.007159	2857.625732
2.007273	2792.469482
2.007388	2789.319336
2.007504	2799.643066
2.007618	2826.127930
2.007734	2946.882813
2.007849	2822.513672
2.007964	2862.445557
2.008079	2886.210205
2.008194	2831.901367
2.008309	2931.024658
2.008425	2766.393311
2.008540	2795.538818
2.008655	2757.420898
2.008770	2786.558350
2.008885	2864.093506
2.009001	2731.873047
2.009116	2820.145264
2.009231	2833.125244
2.009346	2848.788818
2.009462	2813.392090
2.009577	2872.039795
2.009693	2812.474609
2.009808	2812.016113
2.009923	2773.962891
2.010039	2848.687988
2.010154	2751.582520
2.010270	2850.443115
2.010386	2847.294678
2.010501	2830.731445
2.010617	2875.875977
2.010732	2843.219727
2.010848	2732.800293
2.010963	2780.620117
2.011079	2801.614258
2.011194	2766.310547
2.011310	2787.300049
2.011426	2888.672607
2.011541	2821.220947
2.011657	2820.760742
2.011773	2892.616211
2.011889	2862.687256
2.012004	2832.768066
2.012120	2727.901611
2.012236	2821.137695
2.012352	2740.392578
2.012468	2782.757080
2.012583	2830.458496
2.012699	2835.346436
2.012815	2751.976807
2.012931	2802.333496
2.013047	2844.653076
2.013163	2678.456299
2.013279	2702.073242
2.013395	2845.933350
2.013511	2714.550537
2.013627	2812.948242
2.013743	2793.792725
2.013859	2710.551514
2.013975	2699.429199
2.014091	2752.381104
2.014208	2759.939453
2.014324	2844.889160
2.014440	2815.073486
2.014556	2835.957031
2.014672	2784.812744
2.014788	2805.694336
2.014905	2837.235352
2.015021	2708.797607
2.015137	2865.632080
2.015254	2742.562012
2.015370	2736.784668
2.015486	2810.941162
2.015603	2861.097656
2.015719	2730.117676
2.015835	2884.131592
2.015952	2721.238525
2.016068	2656.900879
2.016185	2707.041260
2.016301	2714.583496
2.016418	2778.002441
2.016534	2644.524414
2.016651	2777.095459
2.016767	2704.832275
2.016884	2683.117188
2.017000	2738.512939
2.017117	2706.166016
2.017234	2708.382080
2.017350	2782.348389
2.017467	2760.637939
2.017583	2794.722656
2.017700	2749.111816
2.017817	2751.318604
2.017934	2663.245117
2.018050	2734.490967
2.018167	2906.581299
2.018284	2707.058105
2.018401	2680.080566
2.018517	2589.437012
2.018634	2703.079346
2.018751	2684.072266
2.018868	2805.617188
2.018985	2760.085449
2.019102	2804.700684
2.019219	2700.872559
2.019336	2848.835938
2.019453	2737.085449
2.019570	2683.654053
2.019687	2696.459473
2.019804	2735.744141
2.019921	2655.859863
2.020038	2673.958252
2.020155	2705.286133
2.020272	2696.904297
2.020390	2693.817383
2.020507	2767.458496
2.020624	2695.582520
2.020741	2652.823975
2.020858	2744.946533
2.020976	2755.073975
2.021093	2725.544434
2.021210	2780.605469
2.021327	2727.296387
2.021445	2732.135254
2.021562	2715.837646
2.021679	2736.525391
2.021797	2722.873047
2.021914	2717.146973
2.022031	2758.945068
2.022149	2718.898682
2.022266	2715.814941
2.022384	2667.871826
2.022501	2664.797363
2.022619	2677.551758
2.022736	2758.878174
2.022854	2713.596191
2.022971	2831.803467
2.023089	2662.620117
2.023206	2688.543213
2.023324	2651.208252
2.023442	2605.980225
2.023559	2684.590332
2.023677	2718.394775
2.023795	2710.049316
2.023912	2693.806885
2.024030	2751.288330
2.024148	2735.044189
2.024266	2624.054932
2.024384	2613.099854
2.024501	2525.846680
2.024619	2706.948975
2.024737	2724.917969
2.024855	2682.395752
2.024973	2710.880127
2.025091	2586.876709
2.025208	2641.652344
2.025326	2717.434570
2.025445	2745.894287
2.025563	2658.746826
2.025681	2590.015625
2.025798	2594.844727
2.025917	2620.679443
2.026035	2554.613281
2.026153	2632.947754
2.026271	2619.393799
2.026389	2613.716797
2.026507	2699.874268
2.026625	2652.212158
2.026743	2698.990967
2.026861	2577.914551
2.026980	2669.265137
2.027098	2566.584717
2.027216	2584.513184
2.027334	2738.716309
2.027453	2586.287842
2.027571	2588.484619
2.027689	2629.973145
2.027808	2666.209717
2.027926	2629.112549
2.028044	2633.918701
2.028163	2628.252197
2.028281	2565.005615
2.028400	2619.541260
2.028518	2655.743408
2.028637	2571.594727
2.028755	2644.411865
2.028874	2641.363770
2.028992	2719.375000
2.029111	2611.741211
2.029229	2587.788574
2.029348	2610.886475
2.029467	2620.911377
2.029585	2555.166260
2.029704	2580.870117
2.029823	2622.236328
2.029941	2512.129883
2.030060	2584.824951
2.030179	2597.454346
2.030298	2521.336670
2.030416	2539.191406
2.030535	2525.729736
2.030654	2540.968994
2.030773	2514.469238
2.030892	2594.903809
2.031011	2542.328613
2.031129	2573.197510
2.031248	2515.429443
2.031367	2486.349121
2.031486	2561.510254
2.031605	2571.512451
2.031724	2610.165771
2.031843	2555.043213
2.031962	2653.580566
2.032081	2517.754883
2.032200	2493.913330
2.032319	2566.383789
2.032439	2526.927490
2.032557	2536.921631
2.032677	2474.069092
2.032796	2463.259277
2.032915	2468.057129
2.033034	2545.660889
2.033154	2441.250244
2.033273	2492.838623
2.033392	2471.638428
2.033511	2541.394775
2.033631	2569.557861
2.033750	2441.849121
2.033869	2410.281738
2.033989	2589.070068
2.034108	2510.752930
2.034227	2549.281738
2.034347	2478.783203
2.034466	2460.210938
2.034586	2449.428955
2.034705	2519.073975
2.034825	2521.254883
2.034944	2484.533447
2.035064	2543.766113
2.035183	2481.126465
2.035303	2423.691895
2.035423	2576.208496
2.035542	2485.089600
2.035662	2409.545898
2.035781	2437.646240
2.035901	2452.787109
2.036021	2405.771729
2.036140	2436.447998
2.036260	2493.001953
2.036380	2427.884277
2.036500	2531.003662
2.036619	2406.388184
2.036739	2553.457764
2.036859	2390.079346
2.036979	2454.343506
2.037099	2459.112793
2.037219	2432.855713
2.037339	2406.607178
2.037459	2463.072510
2.037578	2444.579834
2.037699	2457.097412
2.037818	2436.028320
2.037939	2461.457520
2.038059	2339.679688
2.038178	2447.740234
2.038299	2369.891602
2.038419	2557.927490
2.038539	2511.054688
2.038659	2430.653320
2.038779	2481.852295
2.038899	2455.650635
2.039020	2403.666992
2.039140	2343.964600
2.039260	2480.224609
2.039380	2420.529053
2.039500	2466.524170
2.039621	2409.427246
2.039741	2455.409180
2.039861	2491.071533
2.039982	2408.241699
2.040102	2410.421875
2.040222	2430.625000
2.040343	2461.118896
2.040463	2483.880859
2.040584	2388.252197
2.040704	2431.603516
2.040825	2433.777100
2.040945	2374.215332
2.041066	2312.101318
2.041186	2345.150635
2.041307	2403.899170
2.041427	2380.369141
2.041548	2351.706787
2.041668	2366.739258
2.041789	2363.781494
2.041910	2443.029785
2.042031	2440.060303
2.042151	2336.937256
2.042272	2290.336182
2.042393	2361.842529
2.042513	2335.786865
2.042634	2348.235352
2.042755	2391.471191
2.042876	2444.954834
2.042997	2359.904785
2.043118	2413.375977
2.043238	2323.230225
2.043359	2417.711426
2.043480	2348.101807
2.043601	2398.976563
2.043722	2326.830322
2.043843	2441.745850
2.043964	2377.301270
2.044085	2335.929688
2.044206	2307.376221
2.044327	2355.646484
2.044448	2373.180176
2.044569	2349.753662
2.044690	2270.031982
2.044812	2377.128906
2.044933	2307.662109
2.045054	2373.790283
2.045175	2258.311035
2.045296	2390.910400
2.045418	2293.363037
2.045539	2252.085938
2.045660	2341.171143
2.045781	2371.451904
2.045903	2404.277832
2.046024	2357.899902
2.046145	2421.367188
2.046267	2308.603760
2.046388	2349.078125
2.046510	2277.210449
2.046631	2274.283691
2.046753	2286.670654
2.046874	2171.469727
2.046995	2250.201660
2.047117	2323.806152
2.047239	2356.579590
2.047360	2261.842773
2.047482	2159.488281
2.047603	2258.550293
2.047725	2263.276855
2.047847	2206.841797
2.047968	2226.862305
2.048090	2320.753174
2.048212	2328.012939
2.048333	2263.964355
2.048455	2240.676270
2.048577	2342.140137
2.048699	2275.575195
2.048820	2310.830811
2.048942	2226.480713
2.049064	2236.291260
2.049186	2146.893799
2.049308	2296.595459
2.049430	2258.074707
2.049551	2333.977295
2.049674	2231.911865
2.049795	2315.418457
2.049917	2330.285156
2.050040	2329.902100
2.050161	2197.419678
2.050283	2255.477295
2.050405	2214.474121
2.050528	2155.710205
2.050650	2183.281494
2.050772	2155.001465
2.050894	2169.874268
2.051016	2169.517334
2.051138	2212.290039
2.051260	2156.120850
2.051383	2125.332031
2.051505	2201.055664
2.051627	2228.582764
2.051749	2215.541504
2.051872	2235.453369
2.051994	2123.584717
2.052116	2247.386475
2.052239	2095.020264
2.052361	2190.924316
2.052484	2246.277588
2.052606	2154.755127
2.052728	2215.159424
2.052851	2235.044434
2.052973	2216.961426
2.053096	2150.807373
2.053218	2175.752930
2.053341	2074.213867
2.053463	2124.454834
2.053586	2033.072144
2.053709	2176.849609
2.053831	2108.239014
2.053954	2125.584229
2.054076	2137.869629
2.054199	2210.789795
2.054322	2149.797119
2.054445	2169.649658
2.054567	2108.683838
2.054690	2239.634277
2.054813	2113.038818
2.054936	2170.745850
2.055058	2056.821777
2.055181	2124.612061
2.055304	2083.896240
2.055427	2121.390381
2.055550	2126.085205
2.055673	2148.429932
2.055796	2165.724609
2.055919	2094.785889
2.056042	2119.644775
2.056165	2084.016113
2.056288	2164.298828
2.056411	2113.559814
2.056534	2120.768066
2.056657	2090.198975
2.056780	2150.284424
2.056903	2084.475830
2.057026	2081.615479
2.057149	2113.989258
2.057273	2060.800049
2.057396	2065.492432
2.057519	2070.183105
2.057642	2105.052002
2.057765	2072.015869
2.057889	2086.759521
2.058012	2071.333496
2.058136	2086.072266
2.058259	2095.780518
2.058382	2065.285156
2.058506	2125.235352
2.058629	2026.929443
2.058753	2019.061768
2.058876	2081.500732
2.058999	2018.396606
2.059123	2068.264648
2.059246	2103.058594
2.059370	2122.785889
2.059494	1994.487793
2.059617	1959.041870
2.059741	2038.973877
2.059864	2008.547363
2.059988	2123.544678
2.060112	2047.993042
2.060235	1982.491577
2.060359	2042.306396
2.060483	2054.497314
2.060606	1958.965942
2.060730	2096.399414
2.060854	2066.002930
2.060978	2033.112549
2.061101	2060.315186
2.061225	2002.406372
2.061349	2057.133545
2.061473	2026.768188
2.061597	2103.989014
2.061721	2043.609619
2.061845	1993.253784
2.061969	1977.921997
2.062093	1965.095337
2.062217	2037.262939
2.062341	2094.410889
2.062465	1956.626953
2.062589	2061.240234
2.062713	2060.900391
2.062837	1955.659302
2.062961	2100.176514
2.063085	2004.950928
2.063210	1974.663330
2.063334	1889.473633
2.063458	1924.100342
2.063582	2053.532471
2.063706	1965.876831
2.063831	1983.013184
2.063955	1920.337524
2.064079	1952.436646
2.064204	2054.332764
2.064328	1986.690674
2.064452	2071.101074
2.064577	1978.559692
2.064701	1958.301514
2.064825	2040.183594
2.064950	1980.071411
2.065074	1949.861816
2.065199	1996.846924
2.065324	1844.662720
2.065448	1983.743042
2.065573	2038.165039
2.065697	1891.025513
2.065822	1982.761353
2.065946	1969.997314
2.066071	1944.802734
2.066195	1949.454834
2.066320	1929.244141
2.066445	1951.297241
2.066570	1946.004639
2.066694	1930.774048
2.066819	1982.629883
2.066944	1930.136841
2.067069	1981.975464
2.067194	1867.418091
2.067318	1978.838501
2.067443	1978.511841
2.067568	1931.026489
2.067693	2027.491333
2.067818	1955.201294
2.067943	1897.819946
2.068068	1823.094604
2.068193	1835.193604
2.068318	1911.757690
2.068443	1941.192139
2.068568	1873.944946
2.068693	1898.419189
2.068818	1865.892456
2.068943	1937.432861
2.069068	1830.596558
2.069193	1921.932739
2.069319	1847.326172
2.069444	1906.442749
2.069569	1920.980835
2.069694	1886.012451
2.069819	1836.207520
2.069945	1838.378540
2.070070	1847.970337
2.070195	1916.921631
2.070321	1901.766724
2.070446	1817.383179
2.070571	1876.416382
2.070697	1945.317139
2.070822	1870.853638
2.070948	1885.370605
2.071073	1922.118042
2.071199	1931.681152
2.071324	1872.087524
2.071450	1881.655640
2.071575	1827.027710
2.071701	1826.725952
2.071826	1814.083374
2.071952	1774.299927
2.072078	1806.081909
2.072203	1884.724854
2.072329	1803.018555
2.072454	1812.585083
2.072580	1908.447632
2.072706	1851.430664
2.072832	1806.756836
2.072958	1882.856812
2.073083	1845.584717
2.073209	1852.670654
2.073335	1854.827637
2.073461	1788.024292
2.073587	1822.202881
2.073713	1745.578735
2.073838	1863.447998
2.073964	1811.454468
2.074090	1816.076660
2.074217	1842.840820
2.074342	1781.036255
2.074469	1797.958984
2.074594	1854.222900
2.074721	1758.024048
2.074847	1779.858643
2.074973	1850.845337
2.075099	1671.137695
2.075225	1715.090088
2.075351	1795.878906
2.075477	1788.212891
2.075603	1787.917236
2.075730	1780.255005
2.075856	1765.229858
2.075982	1789.484985
2.076109	1808.823486
2.076235	1769.261963
2.076361	1741.980835
2.076488	1714.708740
2.076614	1731.593872
2.076741	1704.332397
2.076867	1799.673462
2.076993	1740.540527
2.077120	1720.644043
2.077246	1788.977783
2.077373	1769.079834
2.077499	1751.638184
2.077626	1672.966309
2.077753	1694.730835
2.077879	1748.320190
2.078006	1755.375610
2.078132	1762.428589
2.078259	1703.399048
2.078386	1786.315430
2.078512	1781.126587
2.078639	1741.692627
2.078766	1773.199707
2.078892	1726.443848
2.079019	1667.478516
2.079146	1679.425415
2.079273	1701.145020
2.079400	1754.626343
2.079527	1795.873169
2.079654	1773.589233
2.079780	1753.755127
2.079907	1731.485474
2.080034	1726.315308
2.080161	1677.202637
2.080288	1657.397461
2.080415	1696.171631
2.080542	1730.052612
2.080669	1634.616821
2.080796	1678.254028
2.080923	1729.193359
2.081050	1672.821167
2.081177	1767.630493
2.081305	1699.082031
2.081432	1650.054565
2.081559	1700.956177
2.081686	1700.674438
2.081814	1654.107056
2.081941	1709.853882
2.082068	1692.523682
2.082195	1636.241089
2.082323	1638.404541
2.082450	1703.853149
2.082577	1718.172974
2.082705	1693.555664
2.082832	1666.513550
2.082960	1656.507568
2.083087	1629.480469
2.083215	1672.980347
2.083342	1592.471802
2.083470	1667.564331
2.083597	1611.387695
2.083724	1669.441772
2.083852	1557.401611
2.083980	1622.733032
2.084107	1612.748779
2.084235	1661.050171
2.084363	1660.774902
2.084490	1558.539185
2.084618	1660.224487
2.084746	1623.546997
2.084874	1681.512085
2.085001	1722.475708
2.085129	1688.231567
2.085257	1629.746460
2.085385	1644.025146
2.085513	1595.264404
2.085641	1628.936035
2.085768	1730.457642
2.085896	1567.815796
2.086024	1572.401489
2.086152	1702.950684
2.086280	1646.962280
2.086408	1632.159546
2.086536	1641.573730
2.086664	1634.039185
2.086792	1657.972168
2.086920	1626.237305
2.087049	1587.254028
2.087177	1599.086792
2.087305	1550.445801
2.087433	1569.535767
2.087561	1685.338989
2.087689	1619.784546
2.087818	1559.086182
2.087946	1568.494751
2.088074	1604.480347
2.088202	1548.646484
2.088331	1562.883179
2.088459	1661.646362
2.088587	1567.194214
2.088716	1484.845215
2.088844	1612.539917
2.088973	1621.926636
2.089101	1563.741211
2.089230	1558.656250
2.089358	1534.273804
2.089487	1628.086426
2.089615	1562.703613
2.089744	1543.154907
2.089872	1591.114380
2.090001	1518.538940
2.090129	1629.145996
2.090258	1580.683960
2.090387	1604.513428
2.090515	1541.618896
2.090644	1483.561890
2.090773	1512.211426
2.090901	1562.519531
2.091030	1567.074585
2.091159	1518.678833
2.091288	1496.769287
2.091417	1510.956665
2.091546	1525.139282
2.091674	1558.558716
2.091803	1486.156372
2.091932	1615.746460
2.092061	1536.146606
2.092190	1579.156128
2.092319	1509.201538
2.092448	1583.437256
2.092577	1559.150513
2.092706	1597.323364
2.092835	1503.396118
2.092964	1577.583374
2.093093	1500.495972
2.093223	1481.043579
2.093352	1471.197632
2.093481	1511.746460
2.093610	1561.878540
2.093739	1571.214233
2.093868	1515.790039
2.093998	1474.772217
2.094127	1546.455322
2.094256	1541.404053
2.094386	1567.512817
2.094515	1526.513428
2.094645	1475.943481
2.094774	1537.984253
2.094903	1477.848267
2.095033	1494.366455
2.095162	1546.795410
2.095292	1450.777466
2.095421	1414.632080
2.095551	1457.475098
2.095680	1512.267944
2.095810	1521.586304
2.095939	1490.236938
2.096069	1458.898071
2.096198	1398.874634
2.096328	1470.367310
2.096458	1520.322266
2.096588	1484.218750
2.096717	1455.296265
2.096847	1488.503906
2.096977	1464.367920
2.097106	1488.009033
2.097236	1502.089966
2.097366	1434.985718
2.097496	1501.590576
2.097626	1463.151001
2.097756	1396.086426
2.097886	1486.525269
2.098016	1440.950195
2.098145	1378.693237
2.098275	1397.542969
2.098405	1528.457520
2.098536	1437.607788
2.098665	1451.670898
2.098796	1451.429443
2.098926	1463.102539
2.099056	1472.389160
2.099186	1417.355713
2.099316	1414.738281
2.099446	1454.985352
2.099576	1407.124878
2.099707	1411.651855
