#Wave		#Intensity
1.699584	396.926056
1.699649	392.143829
1.699714	396.857391
1.699779	392.008118
1.699844	406.279572
1.699908	434.882904
1.699973	430.029572
1.700038	329.632294
1.700103	405.998535
1.700168	477.562744
1.700233	372.434509
1.700298	467.849609
1.700363	453.449280
1.700428	458.143188
1.700493	376.948486
1.700558	381.653992
1.700623	448.365936
1.700688	467.364532
1.700753	414.833557
1.700818	400.459717
1.700883	390.857422
1.700948	414.618530
1.701013	409.781982
1.701078	424.003418
1.701143	452.509735
1.701208	390.519867
1.701273	357.121124
1.701338	485.600830
1.701403	395.077515
1.701468	428.323334
1.701534	356.874481
1.701599	432.932922
1.701664	504.208435
1.701729	328.154480
1.701794	366.138153
1.701859	399.354492
1.701925	465.833160
1.701990	361.196014
1.702055	413.403015
1.702120	465.592010
1.702186	384.759644
1.702251	531.921570
1.702316	432.111694
1.702381	479.513733
1.702447	446.203125
1.702512	436.634125
1.702577	465.030029
1.702643	408.017181
1.702708	426.921082
1.702773	388.905487
1.702839	455.225464
1.702904	374.548035
1.702969	464.549103
1.703035	426.553162
1.703100	454.911621
1.703166	402.716888
1.703231	483.176971
1.703297	492.566132
1.703362	421.450287
1.703427	506.600098
1.703493	468.642700
1.703558	369.170013
1.703624	454.284821
1.703689	425.818634
1.703755	397.362274
1.703820	491.887604
1.703886	435.056396
1.703952	430.253387
1.704017	482.178986
1.704083	458.463806
1.704148	467.836090
1.704214	481.929962
1.704280	453.503052
1.704345	429.809082
1.704411	476.958740
1.704476	472.155090
1.704542	391.821259
1.704608	457.832794
1.704674	509.664246
1.704739	519.013184
1.704805	457.596497
1.704871	443.367706
1.704936	448.007294
1.705002	400.779694
1.705068	428.996216
1.705134	457.203003
1.705199	428.848633
1.705265	499.452057
1.705331	442.834137
1.705397	480.439514
1.705463	433.263092
1.705528	428.480042
1.705594	499.022797
1.705660	447.160522
1.705726	451.789795
1.705792	475.238831
1.705858	461.043549
1.705924	498.594055
1.705989	474.993835
1.706056	413.784882
1.706121	409.012512
1.706187	446.546112
1.706253	465.268097
1.706319	422.898346
1.706385	512.088867
1.706451	432.147583
1.706517	526.002319
1.706583	469.564270
1.706649	469.483643
1.706715	431.850769
1.706781	478.708862
1.706847	427.010071
1.706913	520.768982
1.706980	525.370422
1.707046	464.310211
1.707112	501.744080
1.707178	515.723145
1.707244	487.509094
1.707310	468.678284
1.707376	473.283844
1.707443	445.091583
1.707509	421.593353
1.707575	435.571716
1.707641	477.641876
1.707707	472.877960
1.707773	491.521484
1.707840	552.281799
1.707906	491.352875
1.707972	472.553619
1.708038	491.184357
1.708105	500.454437
1.708171	462.957886
1.708237	547.038208
1.708303	500.197052
1.708370	481.415558
1.708436	486.006165
1.708503	607.403564
1.708569	518.540344
1.708635	532.463623
1.708702	513.692688
1.708768	550.957703
1.708834	457.496643
1.708901	480.755920
1.708967	518.007446
1.709034	536.582397
1.709100	438.522675
1.709167	536.398621
1.709233	419.718292
1.709299	517.563904
1.709366	470.855896
1.709432	498.742096
1.709499	535.939453
1.709566	461.294952
1.709632	442.580994
1.709699	451.821106
1.709765	498.315277
1.709832	460.979156
1.709898	460.900238
1.709965	507.368958
1.710032	549.167786
1.710098	488.582642
1.710165	488.499023
1.710231	525.628052
1.710298	516.236572
1.710365	511.498260
1.710431	516.059937
1.710498	548.510437
1.710565	501.940613
1.710631	501.854736
1.710698	594.689087
1.710765	524.909180
1.710832	515.530579
1.710898	473.649780
1.710965	501.425781
1.711032	543.118408
1.711099	538.384277
1.711165	561.494507
1.711232	510.362305
1.711299	519.552795
1.711366	561.206604
1.711433	482.276978
1.711500	537.832397
1.711566	519.197693
1.711633	551.553284
1.711700	491.215637
1.711767	574.531433
1.711834	542.005615
1.711901	477.068726
1.711968	541.820435
1.712035	500.056519
1.712102	476.824280
1.712169	513.771423
1.712236	481.289215
1.712303	559.865906
1.712370	596.779907
1.712437	462.541077
1.712504	545.705261
1.712571	559.483643
1.712638	531.649841
1.712705	563.914856
1.712772	526.846924
1.712839	568.343079
1.712906	489.708008
1.712973	503.481720
1.713040	535.723999
1.713107	484.839813
1.713175	558.624878
1.713242	498.522247
1.713309	507.667511
1.713376	535.267151
1.713443	516.721497
1.713511	604.276550
1.713578	585.725403
1.713645	534.902039
1.713712	553.252563
1.713779	543.938965
1.713847	516.192993
1.713914	557.577698
1.713981	534.446167
1.714048	543.568054
1.714116	575.715515
1.714183	575.617371
1.714250	566.310913
1.714318	538.594177
1.714385	625.951538
1.714453	589.030457
1.714520	552.121948
1.714587	565.828552
1.714655	588.729370
1.714722	565.635742
1.714789	588.528809
1.714857	533.263367
1.714924	606.713562
1.714992	537.677246
1.715059	592.722656
1.715127	629.373474
1.715194	597.114014
1.715262	615.381958
1.715329	560.177734
1.715397	569.263977
1.715464	596.707458
1.715532	614.962952
1.715599	559.796326
1.715667	500.060760
1.715734	573.366577
1.715802	587.027466
1.715870	573.171448
1.715937	641.842773
1.716005	550.057312
1.716073	604.960083
1.716140	577.363647
1.716208	494.798920
1.716275	622.974121
1.716343	599.968567
1.716411	531.179504
1.716478	567.716003
1.716546	672.903687
1.716614	572.099731
1.716682	617.762634
1.716749	494.126038
1.716817	567.233459
1.716885	525.973816
1.716953	649.352905
1.717021	548.655640
1.717088	562.276428
1.717156	671.874695
1.717224	571.224915
1.717292	589.403870
1.717360	543.621277
1.717427	644.013184
1.717495	648.470459
1.717563	593.569275
1.717631	616.294128
1.717699	602.496277
1.717767	625.211914
1.717835	638.794128
1.717903	629.561523
1.717971	556.474365
1.718039	620.226685
1.718107	569.964478
1.718175	610.898132
1.718243	578.887268
1.718311	647.149841
1.718379	601.473755
1.718447	605.927490
1.718515	610.379700
1.718583	587.504578
1.718651	596.511902
1.718719	641.938171
1.718787	664.589111
1.718855	609.861816
1.718923	587.006104
1.718992	550.509216
1.719060	650.491394
1.719128	604.899780
1.719196	650.270630
1.719264	577.415100
1.719332	586.408752
1.719401	649.939697
1.719469	586.209778
1.719537	645.175781
1.719605	608.724548
1.719674	626.789124
1.719742	626.682800
1.719810	635.657349
1.719878	567.454956
1.719947	626.364075
1.720015	603.567322
1.720083	676.062317
1.720152	639.655212
1.720220	752.941589
1.720288	711.998718
1.720357	720.946533
1.720425	634.688110
1.720493	657.244141
1.720562	688.856384
1.720630	579.991272
1.720699	647.849243
1.720767	670.387695
1.720835	611.398682
1.720904	679.216736
1.720972	579.500122
1.721041	669.933472
1.721109	624.561890
1.721178	556.580444
1.721246	696.738770
1.721315	705.667786
1.721383	673.889099
1.721452	587.857361
1.721520	718.872986
1.721589	709.710388
1.721658	691.511475
1.721726	709.470093
1.721795	668.686584
1.721864	677.608215
1.721932	700.076599
1.722001	713.505676
1.722069	690.809448
1.722138	713.264160
1.722207	649.953552
1.722275	690.458801
1.722344	712.902161
1.722413	735.337891
1.722481	685.597839
1.722550	689.991577
1.722619	712.419800
1.722688	613.118347
1.722756	617.522095
1.722825	590.377502
1.722894	756.997253
1.722963	720.827820
1.723032	711.697083
1.723101	729.591370
1.723169	607.890015
1.723238	720.340393
1.723307	643.695374
1.723376	684.091980
1.723445	710.975403
1.723514	611.875366
1.723583	742.223328
1.723651	629.658813
1.723720	723.985229
1.723789	710.374756
1.723858	665.301819
1.723927	773.057983
1.723996	719.002197
1.724065	736.852722
1.724134	736.728210
1.724203	682.705872
1.724272	736.479309
1.724341	660.025391
1.724410	664.403137
1.724479	754.059937
1.724549	668.666382
1.724618	686.501221
1.724687	690.871460
1.724756	699.725586
1.724825	681.668823
1.724894	775.715698
1.724963	739.719543
1.725032	676.841187
1.725101	658.800354
1.725171	663.170044
1.725240	730.259888
1.725309	765.971558
1.725378	743.449219
1.725447	658.244507
1.725517	743.198303
1.725586	747.549255
1.725655	742.947510
1.725724	720.447998
1.725794	774.015320
1.725863	778.358093
1.725932	769.281616
1.726002	697.602844
1.726071	657.245605
1.726140	657.134766
1.726210	800.049500
1.726279	773.101807
1.726348	723.822937
1.726418	817.513977
1.726487	741.444946
1.726557	701.127930
1.726626	692.079651
1.726696	705.355774
1.726765	745.408569
1.726834	722.969055
1.726904	682.688965
1.726973	687.035156
1.727043	713.682434
1.727112	655.585205
1.727182	762.491028
1.727251	793.570313
1.727321	739.946472
1.727390	779.932617
1.727460	784.257202
1.727530	730.661987
1.727599	703.811829
1.727669	734.869568
1.727738	774.822815
1.727808	747.978760
1.727878	707.789185
1.727947	783.332825
1.728017	747.600830
1.728087	765.271973
1.728156	725.106506
1.728226	747.223206
1.728296	702.627258
1.728365	773.649109
1.728435	804.637451
1.728505	755.609558
1.728575	826.586609
1.728644	790.901306
1.728714	719.687866
1.728784	799.518616
1.728854	817.148132
1.728923	817.010559
1.728993	825.752136
1.729063	763.470215
1.729133	732.275513
1.729203	749.901428
1.729273	873.998352
1.729343	847.236572
1.729412	709.607544
1.729482	718.356750
1.729552	802.473450
1.729622	820.069702
1.729692	726.858459
1.729762	779.911987
1.729832	815.225403
1.729902	823.947937
1.729972	748.514954
1.730042	814.814148
1.730112	788.111572
1.730182	743.710571
1.730252	792.272705
1.730322	831.967712
1.730392	884.923279
1.730462	831.687988
1.730532	791.740051
1.730602	871.209900
1.730672	822.425415
1.730743	778.078186
1.730813	839.829590
1.730883	830.849609
1.730953	830.710022
1.731023	883.585571
1.731093	834.848022
1.731164	803.792664
1.731234	799.241943
1.731304	759.372986
1.731374	825.458679
1.731444	754.704407
1.731515	834.006897
1.731585	754.450928
1.731655	763.146667
1.731725	793.892090
1.731796	811.397827
1.731866	837.715759
1.731936	877.249695
1.732007	788.951416
1.732077	854.921082
1.732147	907.650391
1.732218	801.770081
1.732288	858.895142
1.732358	775.077820
1.732429	832.188171
1.732499	845.255554
1.732570	845.113708
1.732640	928.588867
1.732710	871.231018
1.732781	849.087708
1.732851	800.559753
1.732922	800.425415
1.732992	839.865906
1.733063	764.985107
1.733133	848.375610
1.733204	817.468323
1.733274	821.725464
1.733345	760.078369
1.733416	869.770386
1.733486	852.056274
1.733557	895.826477
1.733627	834.208252
1.733698	904.305664
1.733769	816.372070
1.733839	846.953735
1.733910	903.850830
1.733980	789.640137
1.734051	934.250854
1.734122	947.250488
1.734193	907.629517
1.734263	911.861328
1.734334	802.128113
1.734405	872.113342
1.734475	867.585388
1.734546	863.058960
1.734617	836.632690
1.734688	884.667419
1.734758	849.488708
1.734829	858.102539
1.734900	805.430664
1.734971	870.944824
1.735042	870.798889
1.735113	953.780701
1.735183	809.265442
1.735254	835.371948
1.735325	826.486145
1.735396	848.208740
1.735467	865.552551
1.735538	869.778381
1.735609	834.672607
1.735680	908.810608
1.735751	869.341431
1.735822	917.241882
1.735893	794.809875
1.735964	899.469360
1.736035	925.512512
1.736106	886.073486
1.736177	977.572632
1.736248	933.774658
1.736319	907.442139
1.736390	854.946533
1.736461	850.442200
1.736532	850.299866
1.736603	911.194519
1.736674	915.401123
1.736745	910.889587
1.736817	936.882751
1.736888	880.086731
1.736959	897.364014
1.737030	849.304443
1.737101	940.610596
1.737172	866.436096
1.737244	931.589478
1.737315	974.958557
1.737386	926.926086
1.737457	931.122070
1.737528	887.463257
1.737600	922.111511
1.737671	969.794678
1.737742	939.195618
1.737814	886.869751
1.737885	895.414856
1.737956	890.919189
1.738028	986.365051
1.738099	947.099731
1.738170	968.660217
1.738242	929.410950
1.738313	981.363403
1.738384	959.491394
1.738456	959.330994
1.738527	902.748901
1.738599	954.670959
1.738670	980.543579
1.738742	954.351929
1.738813	923.831787
1.738885	941.023499
1.738956	1027.582031
1.739028	949.379211
1.739099	983.895325
1.739171	979.397339
1.739242	940.237671
1.739314	957.409302
1.739385	1035.215332
1.739457	939.766602
1.739528	1017.549622
1.739600	930.794189
1.739672	947.952942
1.739743	960.778137
1.739815	982.253235
1.739887	986.415588
1.739958	1025.181885
1.740030	1029.335571
1.740101	1007.542664
1.740173	907.934082
1.740245	1015.851868
1.740317	955.173523
1.740388	1067.368774
1.740460	993.740173
1.740532	902.856689
1.740604	980.450989
1.740675	1049.382568
1.740747	988.759216
1.740819	979.960266
1.740891	940.950134
1.740963	1031.420044
1.741034	996.729187
1.741106	983.620483
1.741178	1155.992554
1.741250	953.103516
1.741322	974.504333
1.741394	1043.321777
1.741466	1004.352966
1.741538	1034.354126
1.741610	1029.872559
1.741681	990.925415
1.741753	1007.990784
1.741825	1111.189087
1.741897	1046.410522
1.741969	990.264587
1.742041	1041.756836
1.742113	1071.711548
1.742185	1101.656372
1.742257	1028.328003
1.742329	1049.666138
1.742401	1075.298340
1.742474	937.503845
1.742546	1044.841553
1.742618	1083.358765
1.742690	1044.493286
1.742762	1018.533569
1.742834	1009.770020
1.742906	1056.859741
1.742978	979.365295
1.743051	970.612610
1.743123	1060.625488
1.743195	1000.342407
1.743267	1047.394287
1.743340	1034.344238
1.743412	1107.121704
1.743484	1115.518188
1.743556	1046.696533
1.743629	1046.522217
1.743701	1059.212891
1.743773	1123.350464
1.743845	1088.868286
1.743918	1080.114624
1.743990	1114.218384
1.744062	1066.900635
1.744135	1088.143188
1.744207	1040.845459
1.744280	1113.476440
1.744352	1117.572998
1.744424	1044.606934
1.744497	1095.798584
1.744569	1069.937622
1.744642	1125.387085
1.744714	1073.859741
1.744786	1060.848267
1.744859	1035.010254
1.744931	1111.809448
1.745004	1111.624390
1.745076	1154.187012
1.745149	1081.336060
1.745221	1230.723145
1.745294	1187.792114
1.745367	1123.515625
1.745439	1093.430176
1.745512	1088.977783
1.745584	1157.113281
1.745657	1127.037231
1.745729	1024.408813
1.745802	1186.409546
1.745875	1199.013062
1.745947	1109.222534
1.746020	1215.676392
1.746093	1117.383301
1.746166	1257.913208
1.746238	1070.114258
1.746311	1069.936279
1.746384	1056.972412
1.746456	1133.499756
1.746529	1099.226685
1.746602	1116.083374
1.746675	1103.120361
1.746747	1149.779907
1.746820	1107.011353
1.746893	1170.682861
1.746966	1059.823853
1.747039	1161.782471
1.747112	1119.040283
1.747184	1148.633667
1.747257	1173.963745
1.747330	1195.032593
1.747403	1182.077759
1.747476	1101.105347
1.747549	1198.687622
1.747622	1177.238647
1.747695	1206.787842
1.747768	1074.882446
1.747841	1100.190918
1.747914	1210.433716
1.747987	1121.057617
1.748060	1197.294434
1.748133	1197.095459
1.748206	1150.209229
1.748279	1247.621216
1.748352	1166.798828
1.748425	1196.300415
1.748498	1153.686890
1.748571	1140.772827
1.748644	1208.424805
1.748717	1284.533081
1.748791	1169.875488
1.748864	1114.587524
1.748937	1144.063477
1.749010	1097.271240
1.749083	1177.570557
1.749156	1168.904785
1.749229	1202.586426
1.749303	1232.023071
1.749376	1193.721069
1.749449	1159.664185
1.749522	1172.166626
1.749596	1188.895874
1.749669	1324.066406
1.749742	1260.403564
1.749816	1200.990723
1.749889	1107.772339
1.749962	1264.003784
1.750035	1208.846436
1.750109	1217.098022
1.750182	1284.501343
1.750256	1229.368042
1.750329	1220.716309
1.750402	1157.165405
1.750476	1296.316895
1.750549	1300.323730
1.750623	1253.675659
1.750696	1156.397827
1.750769	1287.017700
1.750843	1299.461304
1.750916	1202.224243
1.750990	1202.024902
1.751063	1303.031982
1.751137	1193.193848
1.751211	1294.168823
1.751284	1239.161499
1.751358	1209.457031
1.751431	1242.964111
1.751505	1284.885376
1.751578	1183.583496
1.751652	1259.191406
1.751725	1246.350830
1.751799	1225.094482
1.751873	1208.054443
1.751946	1212.062744
1.752020	1392.799683
1.752094	1262.146973
1.752167	1261.937866
1.752241	1307.992065
1.752315	1194.238647
1.752389	1282.332520
1.752462	1303.138428
1.752536	1286.110596
1.752610	1302.706665
1.752684	1348.708252
1.752757	1163.645874
1.752831	1276.858276
1.752905	1247.250244
1.752979	1297.429321
1.753053	1385.374634
1.753127	1334.776245
1.753200	1267.407837
1.753274	1338.530273
1.753348	1371.871216
1.753422	1279.362183
1.753496	1354.641113
1.753570	1354.416870
1.753644	1270.341675
1.753718	1299.474365
1.753792	1257.347656
1.753866	1387.043823
1.753940	1370.055176
1.754014	1361.450195
1.754088	1323.529419
1.754162	1373.562622
1.754236	1390.083252
1.754310	1419.157349
1.754384	1385.437622
1.754458	1351.728882
1.754532	1309.662964
1.754606	1351.281616
1.754680	1480.726074
1.754754	1434.477417
1.754828	1363.155273
1.754902	1296.037476
1.754977	1371.064453
1.755051	1366.658203
1.755125	1349.717407
1.755199	1299.358154
1.755273	1487.122070
1.755347	1298.928223
1.755422	1390.583862
1.755496	1411.229980
1.755570	1448.567505
1.755645	1535.978882
1.755719	1322.893433
1.755793	1335.192139
1.755867	1405.891724
1.755942	1376.461548
1.756016	1447.130859
1.756090	1359.327515
1.756165	1417.469116
1.756239	1471.423218
1.756314	1400.329834
1.756388	1475.103638
1.756462	1408.199463
1.756537	1553.762085
1.756611	1403.569092
1.756685	1415.829712
1.756760	1436.413208
1.756834	1377.896240
1.756909	1352.695679
1.756983	1489.800049
1.757058	1431.303101
1.757132	1422.746460
1.757207	1551.452515
1.757281	1534.561279
1.757356	1459.463501
1.757431	1388.547729
1.757505	1604.463623
1.757580	1512.767578
1.757654	1450.188599
1.757729	1433.330811
1.757804	1507.864136
1.757878	1407.937988
1.757953	1469.993286
1.758028	1498.813354
1.758102	1415.542725
1.758177	1386.255737
1.758252	1539.568604
1.758326	1522.718018
1.758401	1460.240356
1.758476	1513.919678
1.758550	1480.493408
1.758625	1467.809814
1.758700	1509.024170
1.758775	1512.920044
1.758850	1458.794312
1.758924	1558.000244
1.758999	1537.028442
1.759074	1528.490234
1.759149	1569.653564
1.759224	1598.380615
1.759298	1440.789185
1.759373	1502.644165
1.759448	1494.118408
1.759523	1440.075928
1.759598	1572.237183
1.759673	1563.704102
1.759748	1468.315796
1.759823	1430.854736
1.759898	1492.639648
1.759973	1463.454956
1.760048	1483.880371
1.760123	1558.023926
1.760198	1553.634888
1.760273	1569.903809
1.760348	1569.644897
1.760423	1474.396729
1.760498	1680.617676
1.760573	1544.096558
1.760648	1535.586060
1.760723	1622.004761
1.760798	1601.104492
1.760874	1501.819336
1.760949	1662.454346
1.761024	1625.059570
1.761099	1558.810181
1.761174	1579.168823
1.761249	1537.683716
1.761325	1504.455811
1.761400	1545.418945
1.761475	1730.583740
1.761550	1573.747681
1.761626	1548.773682
1.761701	1602.057617
1.761776	1560.616211
1.761851	1535.656738
1.761927	1650.661743
1.762002	1580.422974
1.762077	1608.967529
1.762153	1604.588013
1.762228	1563.187134
1.762303	1579.381348
1.762379	1566.784180
1.762454	1640.535034
1.762529	1504.603760
1.762605	1619.443115
1.762680	1771.230835
1.762756	1561.384766
1.762831	1585.776855
1.762907	1552.655151
1.762982	1683.819458
1.763058	1695.860596
1.763133	1629.892822
1.763209	1621.414673
1.763284	1715.543457
1.763360	1616.776978
1.763435	1575.482544
1.763511	1657.265869
1.763586	1632.384033
1.763662	1615.712036
1.763738	1656.447144
1.763813	1656.174316
1.763889	1688.691772
1.763964	1692.511719
1.764040	1626.674316
1.764116	1663.277222
1.764191	1597.466187
1.764267	1691.397217
1.764343	1760.729004
1.764419	1801.379517
1.764494	1702.842041
1.764570	1702.561768
1.764646	1640.901123
1.764722	1656.996338
1.764797	1709.902344
1.764873	1779.151001
1.764949	1692.982178
1.765025	1762.210693
1.765100	1737.392822
1.765176	1847.464233
1.765252	1679.608032
1.765328	1736.535156
1.765404	1773.016968
1.765480	1711.455933
1.765556	1764.265625
1.765632	1678.226563
1.765708	1747.354614
1.765783	1857.279297
1.765859	1714.129639
1.765935	1795.459473
1.766011	1872.682495
1.766087	1819.344238
1.766163	1757.866333
1.766239	1761.655029
1.766315	1814.369263
1.766391	1842.606812
1.766467	1768.937622
1.766544	1793.098022
1.766620	1760.206665
1.766696	1857.690430
1.766772	1710.749268
1.766848	1910.022461
1.766924	1807.911621
1.767000	1840.183960
1.767076	1729.976929
1.767152	1778.530762
1.767229	1802.653564
1.767305	1745.397827
1.767381	1887.485840
1.767457	1826.167725
1.767533	1752.670166
1.767610	1817.435669
1.767686	1764.289429
1.767762	1759.934937
1.767838	1824.667236
1.767915	1889.378174
1.767991	1913.442627
1.768067	1766.901855
1.768144	1835.651367
1.768220	1924.680908
1.768296	1721.372559
1.768373	1859.101563
1.768449	1765.450439
1.768525	1838.201416
1.768602	1866.299561
1.768678	1833.540894
1.768755	1817.016235
1.768831	1861.324585
1.768908	1848.855347
1.768984	1913.412964
1.769060	1888.779663
1.769137	1815.524170
1.769214	1888.159058
1.769290	1924.309570
1.769367	1915.892456
1.769443	1895.328491
1.769520	1907.164795
1.769596	1878.511841
1.769673	1845.820557
1.769749	1877.894897
1.769826	1942.330811
1.769903	2010.791504
1.769979	1929.557373
1.770056	1913.062378
1.770132	1949.143066
1.770209	1985.211792
1.770286	2037.438843
1.770362	2016.894897
1.770439	1899.368774
1.770516	1919.259644
1.770593	1975.502930
1.770669	1995.374634
1.770746	1926.391602
1.770823	1946.264893
1.770900	1925.759277
1.770976	2042.503662
1.771053	1993.737549
1.771130	1944.987427
1.771207	1940.633545
1.771284	1960.484619
1.771361	1944.029907
1.771437	2076.786377
1.771514	1987.743164
1.771591	2031.760986
1.771668	2043.519409
1.771745	1934.375488
1.771822	2014.643799
1.771899	1965.969727
1.771976	1973.703125
1.772053	1933.106201
1.772130	2081.774902
1.772207	1972.731812
1.772284	2016.686768
1.772361	2032.454590
1.772438	1927.497070
1.772515	2092.137939
1.772592	2015.363770
1.772669	2047.209473
1.772746	2006.660034
1.772823	2010.351563
1.772900	2086.402832
1.772977	2082.041260
1.773054	2041.512451
1.773132	2117.520996
1.773209	2032.808105
1.773286	2193.144775
1.773363	2132.543701
1.773440	2120.147705
1.773517	2079.652344
1.773595	2103.396240
1.773672	2179.306885
1.773749	2110.732178
1.773826	2058.228271
1.773904	2158.177979
1.773981	2133.759033
1.774058	2241.683838
1.774136	2189.192871
1.774213	2220.904785
1.774290	2104.302979
1.774368	2148.041016
1.774445	2199.778564
1.774522	2115.287109
1.774600	2050.851318
1.774677	2166.657715
1.774755	2142.277100
1.774832	2169.951416
1.774909	2289.684082
1.774987	2137.221924
1.775064	2084.850586
1.775142	2132.520508
1.775219	2052.164795
1.775297	2167.818848
1.775374	2091.482422
1.775452	2247.075684
1.775529	2306.673096
1.775607	2158.404541
1.775684	2297.924561
1.775762	2089.769775
1.775840	2113.397949
1.775917	2188.946045
1.775995	2236.512695
1.776072	2196.215332
1.776150	2171.900635
1.776228	2311.258301
1.776305	2223.074463
1.776383	2166.843262
1.776461	2194.417480
1.776538	2217.993164
1.776616	2245.549805
1.776694	2201.315430
1.776772	2392.342285
1.776849	2192.621338
1.776927	2208.206055
1.777005	2215.814941
1.777083	2231.390869
1.777161	2215.089600
1.777238	2274.476807
1.777316	2174.537598
1.777394	2341.426514
1.777472	2173.825684
1.777550	2340.659912
1.777628	2392.017578
1.777706	2403.564209
1.777783	2267.893066
1.777861	2331.171631
1.777939	2215.443848
1.778017	2417.898438
1.778095	2413.526611
1.778173	2393.253906
1.778251	2365.038330
1.778329	2285.167236
1.778407	2368.238037
1.778485	2387.714844
1.778563	2315.823730
1.778641	2331.331299
1.778719	2450.078369
1.778797	2457.618164
1.778875	2393.701660
1.778953	2365.526855
1.779032	2440.538574
1.779110	2344.914551
1.779188	2352.465088
1.779266	2363.979492
1.779344	2494.462646
1.779422	2498.019775
1.779500	2442.108887
1.779579	2461.528320
1.779657	2310.525391
1.779735	2369.585449
1.779813	2472.206543
1.779892	2432.189941
1.779970	2356.541260
1.780048	2482.873535
1.780126	2470.589600
1.780205	2402.888916
1.780283	2351.042236
1.780361	2390.231201
1.780440	2441.277344
1.780518	2452.746338
1.780596	2428.612793
1.780675	2467.763428
1.780753	2657.156738
1.780832	2482.770264
1.780910	2450.741943
1.780988	2509.623779
1.781067	2489.456055
1.781145	2512.754150
1.781224	2575.547119
1.781302	2610.672363
1.781381	2487.828613
1.781459	2515.060059
1.781538	2400.167236
1.781616	2443.192139
1.781695	2588.807861
1.781773	2659.407471
1.781852	2445.939453
1.781931	2623.038574
1.782009	2634.441406
1.782088	2649.783447
1.782166	2704.545166
1.782245	2510.953125
1.782324	2569.660645
1.782402	2636.230225
1.782481	2509.722412
1.782560	2536.887207
1.782638	2666.447266
1.782717	2539.996338
1.782796	2602.578857
1.782875	2732.064453
1.782953	2723.746094
1.783032	2636.722412
1.783111	2821.225586
1.783190	2635.861084
1.783268	2568.561279
1.783347	2760.850830
1.783426	2760.399902
1.783505	2744.222900
1.783584	2704.465576
1.783663	2676.511963
1.783742	2664.286133
1.783820	2652.063965
1.783899	2671.272705
1.783978	2702.258057
1.784057	2697.889648
1.784136	2646.405762
1.784215	2751.969727
1.784294	2708.343750
1.784373	2692.203613
1.784452	2719.231201
1.784531	2608.937256
1.784610	2828.175293
1.784689	2729.665283
1.784768	2776.275146
1.784847	2767.980713
1.784926	2783.208984
1.785005	2700.447754
1.785084	2817.569092
1.785164	2911.143311
1.785243	2789.227051
1.785322	2675.184326
1.785401	2764.819580
1.785480	2846.594727
1.785559	2775.661865
1.785638	2810.437256
1.785718	3021.314209
1.785797	2848.649902
1.785876	2629.093994
1.785955	2871.190674
1.786035	2769.034424
1.786114	2881.984863
1.786193	2881.514648
1.786273	2869.317139
1.786352	2814.129639
1.786431	2809.762695
1.786510	2891.356445
1.786590	2914.324219
1.786669	2878.695068
1.786748	2850.888184
1.786828	2951.945068
1.786907	2869.478516
1.786987	2896.334229
1.787066	2856.833984
1.787146	3012.453857
1.787225	2937.833740
1.787304	2894.445068
1.787384	2843.270020
1.787463	2971.492920
1.787543	2850.140625
1.787622	3021.202148
1.787702	2942.755615
1.787781	2992.937500
1.787861	2976.863770
1.787941	3124.417969
1.788020	2948.626953
1.788100	3061.086914
1.788179	2935.983887
1.788259	2951.078125
1.788339	3036.234131
1.788418	2969.575684
1.788498	3035.244385
1.788578	3003.623779
1.788657	3061.485107
1.788737	3018.202393
1.788817	3052.709473
1.788896	3145.527832
1.788976	3090.589600
1.789056	3140.615723
1.789136	3093.468506
1.789215	3104.621094
1.789295	3119.655029
1.789375	2979.309570
1.789455	3021.544922
1.789535	3044.351074
1.789614	2966.205566
1.789694	3105.468262
1.789774	3015.694580
1.789854	3073.411621
1.789934	3204.828613
1.790014	3130.599609
1.790094	3068.030762
1.790174	3145.091553
1.790254	3210.495117
1.790334	3128.559814
1.790413	3151.306885
1.790493	3061.656494
1.790573	3158.029785
1.790653	3107.150146
1.790734	3211.231689
1.790814	3179.724609
1.790894	3159.844727
1.790974	3229.021240
1.791054	3220.752930
1.791134	3185.394043
1.791214	3239.052979
1.791294	3273.348145
1.791374	3307.632324
1.791454	3221.998779
1.791534	3236.943115
1.791615	3201.615723
1.791695	3262.951416
1.791775	3169.649658
1.791855	3319.860596
1.791935	3137.704102
1.792016	3191.282715
1.792096	3167.585449
1.792176	3317.698486
1.792256	3336.466553
1.792337	3459.476074
1.792417	3223.428711
1.792497	3226.763672
1.792578	3361.308105
1.792658	3410.921387
1.792738	3352.497803
1.792819	3371.238281
1.792899	3420.825684
1.792979	3416.412598
1.793060	3365.736816
1.793140	3322.786621
1.793221	3372.349365
1.793301	3302.437500
1.793381	3556.188721
1.793462	3486.269531
1.793542	3374.005615
1.793623	3404.264404
1.793703	3307.451416
1.793784	3380.057861
1.793864	3433.395264
1.793945	3436.684814
1.794026	3524.625977
1.794106	3566.371826
1.794187	3508.092529
1.794267	3511.367676
1.794348	3418.508057
1.794428	3464.088379
1.794509	3505.809570
1.794590	3363.031006
1.794670	3627.639648
1.794751	3519.467529
1.794832	3461.270996
1.794912	3579.777832
1.794993	3598.396973
1.795074	3513.337891
1.795155	3566.513428
1.795235	3554.417969
1.795316	3503.947754
1.795397	3672.215332
1.795478	3633.251953
1.795559	3601.973145
1.795639	3517.009766
1.795720	3524.107178
1.795801	3665.395508
1.795882	3614.964111
1.795963	3576.047607
1.796044	3640.613770
1.796125	3731.980225
1.796205	3578.134033
1.796286	3853.337646
1.796367	3584.629883
1.796448	3618.508789
1.796529	3594.949463
1.796610	3636.471436
1.796691	3720.079346
1.796772	3585.542725
1.796853	3707.391602
1.796934	3618.805176
1.797015	3767.382080
1.797096	3686.462891
1.797177	3712.627930
1.797258	3864.939941
1.797340	3784.043945
1.797421	3664.957764
1.797502	3843.949951
1.797583	3717.251953
1.797664	3930.555420
1.797745	3780.968994
1.797826	3715.439209
1.797908	3791.193604
1.797989	3790.577393
1.798070	3812.861328
1.798151	3823.689697
1.798232	3754.390381
1.798314	3841.520996
1.798395	3829.454102
1.798476	3809.763672
1.798558	3858.712891
1.798639	3819.962402
1.798720	3922.258057
1.798802	3803.476563
1.798883	3772.374756
1.798964	3889.867188
1.799046	3900.662842
1.799127	3812.430664
1.799208	3937.475342
1.799290	3978.716797
1.799371	3947.616211
1.799453	4000.260742
1.799534	3972.972168
1.799616	4082.668945
1.799697	3941.246826
1.799778	3982.447021
1.799860	4088.285400
1.799942	4053.399414
1.800023	3900.667969
1.800105	3922.841553
1.800186	4051.424316
1.800268	4126.765625
1.800349	4156.489746
1.800431	4011.462891
1.800513	4067.782959
1.800594	3839.272217
1.800676	4062.664795
1.800757	3978.487061
1.800839	4084.118896
1.800921	4079.660645
1.801003	4344.607422
1.801084	4222.500000
1.801166	4199.055176
1.801248	4054.255615
1.801329	4152.187988
1.801411	4314.541016
1.801493	4014.373535
1.801575	4074.363281
1.801656	4153.280762
1.801738	4266.272949
1.801820	4076.166992
1.801902	4136.107422
1.801984	4196.028320
1.802066	4199.133789
1.802148	4126.521484
1.802229	4224.266602
1.802311	4409.024414
1.802393	4143.431641
1.802475	4142.759277
1.802557	4327.439941
1.802639	4186.799316
1.802721	4307.127930
1.802803	4336.675781
1.802885	4294.388672
1.802967	4505.352539
1.803049	4149.391113
1.803131	4303.633301
1.803213	4484.270020
1.803295	4290.904297
1.803377	4441.271484
1.803459	4323.495605
1.803541	4511.562012
1.803623	4356.064941
1.803706	4400.647461
1.803788	4479.177734
1.803870	4372.809082
1.803952	4549.397461
1.804034	4273.325684
1.804116	4427.246582
1.804199	4418.987305
1.804281	4440.889160
1.804363	4590.938477
1.804445	4620.342773
1.804528	4532.928223
1.804610	4611.308594
1.804692	4456.121582
1.804775	4481.761719
1.804857	4612.830078
1.804939	4566.901855
1.805022	4569.925293
1.805104	4512.727539
1.805186	4515.758789
1.805269	4537.601074
1.805351	4559.436523
1.805434	4596.310059
1.805516	4633.171387
1.805598	4636.179688
1.805681	4582.795410
1.805763	4420.420898
1.805846	4558.759277
1.805928	4772.205078
1.806011	4658.720215
1.806093	4571.566895
1.806176	4540.778809
1.806258	4547.552734
1.806341	4618.152344
1.806423	4527.307617
1.806506	4748.022949
1.806589	4728.489258
1.806671	4720.217773
1.806754	4771.974121
1.806836	4594.905762
1.806919	4657.916504
1.807002	4765.903320
1.807084	4697.646484
1.807167	4689.387695
1.807250	4737.350098
1.807333	4699.108887
1.807415	4754.547363
1.807498	4847.428223
1.807581	4805.442383
1.807664	4785.938477
1.807746	4770.185547
1.807829	4829.310547
1.807912	4776.125000
1.807995	4842.714844
1.808078	4830.704102
1.808160	4957.122559
1.808243	4978.762695
1.808326	4918.115723
1.808409	4816.354492
1.808492	5002.513672
1.808575	4833.483887
1.808658	4929.877930
1.808741	4824.443359
1.808824	4939.488770
1.808907	4890.123047
1.808990	4960.298828
1.809073	4892.272949
1.809156	4992.296387
1.809239	5077.354492
1.809322	4972.014648
1.809405	4941.352051
1.809488	5082.349121
1.809571	5018.100098
1.809654	5084.432617
1.809737	5064.959961
1.809820	5112.617676
1.809903	5074.503906
1.809987	4939.477051
1.810070	5128.769043
1.810153	5124.211426
1.810236	5101.024414
1.810319	5085.295898
1.810403	5106.821289
1.810486	5165.582520
1.810569	5101.442871
1.810652	4936.801270
1.810735	5151.904785
1.810819	5128.738770
1.810902	5243.267578
1.810985	5186.607910
1.811069	5170.887207
1.811152	5237.000000
1.811235	5202.682129
1.811319	5335.696289
1.811402	5204.714355
1.811486	5255.909668
1.811569	5217.894043
1.811652	5250.491211
1.811736	5416.826660
1.811819	5345.371094
1.811903	5433.642578
1.811986	5209.956055
1.812070	5216.537598
1.812153	5260.239746
1.812237	5385.583496
1.812320	5306.779297
1.812404	5220.580078
1.812487	5368.127930
1.812571	5333.875488
1.812654	5355.263672
1.812738	5306.191895
1.812822	5394.311035
1.812905	5382.316895
1.812989	5488.925781
1.813072	5399.102051
1.813156	5505.673340
1.813240	5356.604980
1.813323	5396.479492
1.813407	5473.373535
1.813491	5672.429688
1.813575	5538.237793
1.813658	5348.568359
1.813742	5473.530762
1.813826	5513.347168
1.813910	5471.758301
1.813993	5459.775391
1.814077	5762.163086
1.814161	5421.029297
1.814245	5671.563965
1.814329	5626.286133
1.814413	5599.502930
1.814497	5698.373535
1.814580	5823.076172
1.814664	5582.007324
1.814748	5625.427734
1.814832	5535.883789
1.814916	5568.219727
1.815000	5633.771973
1.815084	5758.362793
1.815168	5783.265137
1.815252	5822.919922
1.815336	5781.393555
1.815420	5669.791504
1.815504	5702.068359
1.815588	5815.463379
1.815672	5714.971191
1.815756	5850.446289
1.815840	5772.095703
1.815925	5686.399902
1.816009	5692.849121
1.816093	5846.660156
1.816177	5679.956543
1.816261	5925.791992
1.816345	5910.103516
1.816429	5787.650879
1.816514	5886.104492
1.816598	5929.318359
1.816682	5865.800293
1.816766	5986.269043
1.816851	5922.761719
1.816935	5767.321777
1.817019	5850.972168
1.817104	5989.749512
1.817188	5885.842773
1.817272	5796.672363
1.817356	5953.766602
1.817441	5813.169434
1.817525	5915.100586
1.817610	5972.917480
1.817694	5975.624023
1.817778	6026.068359
1.817863	5966.347656
1.817947	5961.711426
1.818032	5898.350098
1.818116	5926.754883
1.818201	6061.557129
1.818285	6089.925781
1.818370	6202.649902
1.818454	6087.956055
1.818539	6204.310547
1.818623	6016.327637
1.818708	6033.683105
1.818792	6201.300293
1.818877	5976.764160
1.818961	5957.478516
1.819046	6044.434082
1.819131	6091.071289
1.819215	6038.816895
1.819300	6111.070801
1.819385	6296.789551
1.819469	6284.790039
1.819554	6272.794434
1.819639	6238.847656
1.819723	6157.350586
1.819808	6266.094238
1.819893	6235.821777
1.819978	6370.114258
1.820063	6354.459473
1.820147	6166.996582
1.820232	6334.129883
1.820317	6351.377930
1.820402	6251.697266
1.820487	6352.977539
1.820571	6220.455078
1.820656	6350.923340
1.820741	6295.124512
1.820826	6305.059082
1.820911	6453.701660
1.820996	6525.652344
1.821081	6451.615234
1.821166	6242.606934
1.821251	6394.810547
1.821336	6506.844238
1.821421	6480.265137
1.821506	6380.770996
1.821591	6529.208008
1.821676	6677.596680
1.821761	6454.209473
1.821846	6518.754395
1.821931	6557.776367
1.822016	6625.926270
1.822101	6522.878418
1.822186	6667.481445
1.822272	6571.741699
1.822357	6476.032715
1.822442	6529.581055
1.822527	6553.999512
1.822612	6731.226563
1.822697	6559.156738
1.822783	6896.368164
1.822868	6604.314453
1.822953	6628.700195
1.823038	6765.780273
1.823124	6702.892578
1.823209	6803.572266
1.823294	6620.782715
1.823380	6572.480957
1.823465	6582.316895
1.823550	6751.958984
1.823636	6859.811523
1.823721	6822.394531
1.823806	6745.056152
1.823892	6787.522461
1.823977	6543.275879
1.824063	6738.158691
1.824148	6932.978027
1.824233	6859.311035
1.824319	6767.533691
1.824404	6686.664551
1.824490	6888.617188
1.824575	7054.254395
1.824661	7060.363281
1.824746	6830.921387
1.824832	6760.976074
1.824918	6799.733398
1.825003	6867.454102
1.825089	6982.232422
1.825174	7028.176270
1.825260	7001.698730
1.825346	6899.214844
1.825431	7006.674805
1.825517	6824.614746
1.825603	7018.883301
1.825688	6869.436523
1.825774	6752.588867
1.825860	7127.585938
1.825945	6927.574219
1.826031	7179.509277
1.826117	6918.107422
1.826203	6931.445801
1.826288	7085.698242
1.826374	7066.490234
1.826460	7097.858398
1.826546	7179.777832
1.826632	6947.515625
1.826717	7170.237793
1.826803	7129.372070
1.826889	6918.885742
1.826975	7065.722656
1.827061	7086.229980
1.827147	7330.394043
1.827233	7394.134277
1.827319	7194.593262
1.827405	7171.796875
1.827491	7177.849121
1.827577	7378.545410
1.827663	7034.975586
1.827749	7163.562012
1.827835	7115.568848
1.827921	7049.579590
1.828007	7246.532227
1.828093	7335.389160
1.828179	7280.197266
1.828265	7171.024414
1.828351	7295.843262
1.828438	7431.417480
1.828524	7178.346191
1.828610	7249.138672
1.828696	7406.236816
1.828782	7307.937500
1.828868	7364.291016
1.828955	7377.483398
1.829041	7347.534668
1.829127	7267.278320
1.829213	7456.562012
1.829300	7351.162598
1.829386	7461.339355
1.829472	7273.361816
1.829558	7340.420898
1.829645	7472.088867
1.829731	7266.250000
1.829818	7674.276367
1.829904	7439.759766
1.829990	7531.854980
1.830077	7423.007324
1.830163	7403.873535
1.830250	7481.583008
1.830336	7351.279785
1.830422	7640.511230
1.830509	7528.148438
1.830595	7387.147461
1.830682	7536.469727
1.830768	7639.163086
1.830855	7691.667969
1.830941	7529.239258
1.831028	7420.583008
1.831115	7734.494629
1.831201	7679.542969
1.831288	7714.100098
1.831374	7730.750488
1.831461	7611.413086
1.831547	7703.209961
1.831634	7769.936035
1.831721	7625.612305
1.831807	7610.077148
1.831894	7662.482910
1.831981	7586.171387
1.832068	7817.285156
1.832154	7594.444824
1.832241	7721.857422
1.832328	7702.747559
1.832415	7801.524414
1.832501	7468.111328
1.832588	7795.436035
1.832675	7862.015625
1.832762	7717.954102
1.832849	7538.246582
1.832936	7840.367188
1.833022	7810.557617
1.833109	7734.379395
1.833196	7636.824219
1.833283	7792.512207
1.833370	7912.491699
1.833457	7857.736816
1.833544	7892.115723
1.833631	7823.125000
1.833718	7903.823242
1.833805	7998.747070
1.833892	8143.512695
1.833979	7850.134277
1.834066	7905.846680
1.834153	7890.329102
1.834240	8027.897949
1.834327	7894.902344
1.834414	7982.601074
1.834501	7956.405273
1.834589	8022.718750
1.834676	7857.794922
1.834763	7938.329102
1.834850	8008.168945
1.834937	8163.317383
1.835024	7859.835938
1.835111	8025.620605
1.835199	8042.094727
1.835286	7784.970215
1.835373	7929.370605
1.835461	7988.475586
1.835548	8125.693359
1.835635	8088.874023
1.835722	8112.421387
1.835810	7979.773438
1.835897	8251.770508
1.835984	7977.199707
1.836072	8139.121582
1.836159	8098.787109
1.836246	7969.793945
1.836334	8167.100586
1.836421	8179.966309
1.836509	7919.851563
1.836596	8230.497070
1.836684	8395.737305
1.836771	8217.211914
1.836859	8279.658203
1.836946	8207.477539
1.837034	8326.572266
1.837121	8523.534180
1.837209	8327.427734
1.837296	8205.724609
1.837384	8278.729492
1.837471	8224.312500
1.837559	8339.749023
1.837647	8292.414063
1.837734	8138.979980
1.837822	8272.057617
1.837910	8146.963379
1.837997	8244.642578
1.838085	8105.453125
1.838173	8284.395508
1.838260	8187.648926
1.838348	8553.777344
1.838436	8524.137695
1.838524	8565.147461
1.838611	8433.102539
1.838699	8223.420898
1.838787	8359.777344
1.838875	8510.208984
1.838963	8505.307617
1.839051	8348.677734
1.839138	8410.836914
1.839226	8370.678711
1.839314	8513.931641
1.839402	8237.505859
1.839490	8408.940430
1.839578	8354.707031
1.839666	8487.295898
1.839754	8348.489258
1.839842	8607.881836
1.839930	8514.897461
1.840018	8450.123047
1.840106	8476.935547
1.840194	8267.817383
1.840282	8551.657227
1.840370	8536.198242
1.840458	8707.278320
1.840546	8726.988281
1.840634	8405.409180
1.840722	8601.051758
1.840810	8444.907227
1.840898	8605.312500
1.840987	8639.086914
1.841075	8447.855469
1.841163	8727.691406
1.841251	8532.992188
1.841339	8591.352539
1.841428	8691.853516
1.841516	8616.685547
1.841604	8699.587891
1.841692	8585.815430
1.841781	8633.585938
1.841869	8621.663086
1.841957	8655.372070
1.842046	8657.487305
1.842134	8859.599609
1.842222	8770.466797
1.842311	8811.144531
1.842399	8781.668945
1.842487	8706.617188
1.842576	8638.601563
1.842664	8689.790039
1.842753	8618.292969
1.842841	8701.005859
1.842930	8668.071289
1.843018	8750.749023
1.843107	8752.840820
1.843195	8695.399414
1.843284	8466.406250
1.843372	8755.612305
1.843461	8845.208984
1.843549	8819.285156
1.843638	8786.372070
1.843726	8833.936523
1.843815	8794.035156
1.843904	8733.161133
1.843992	8731.753906
1.844081	8817.755859
1.844170	8977.140625
1.844258	8849.866211
1.844347	8764.569336
1.844436	8682.792969
1.844525	8740.784180
1.844613	8900.051758
1.844702	8835.754883
1.844791	8970.512695
1.844880	8564.080078
1.844968	8786.105469
1.845057	8669.515625
1.845146	9041.503906
1.845235	8767.903320
1.845324	8923.471680
1.845412	8758.103516
1.845501	8802.027344
1.845590	8936.593750
1.845679	8889.833008
1.845768	8891.886719
1.845857	8852.118164
1.845946	8899.475586
1.846035	8915.461914
1.846124	8858.291016
1.846213	8877.761719
1.846302	9026.069336
1.846391	8986.316406
1.846480	8831.698242
1.846569	9234.024414
1.846658	8901.933594
1.846747	9001.404297
1.846836	9118.238281
1.846925	8991.548828
1.847015	8997.055664
1.847104	8960.833984
1.847193	9060.213867
1.847282	8912.757813
1.847371	9001.687500
1.847460	9097.537109
1.847550	9002.261719
1.847639	9070.289063
1.847728	9155.661133
1.847817	9147.241211
1.847907	9086.741211
1.847996	9185.955078
1.848085	9097.698242
1.848175	8947.000977
1.848264	9157.227539
1.848353	8930.241211
1.848442	9043.275391
1.848532	9166.676758
1.848621	9158.264648
1.848711	9038.906250
1.848800	9110.250000
1.848889	8997.869141
1.848979	9051.867188
1.849068	9161.288086
1.849158	9256.815430
1.849247	9158.336914
1.849337	9229.590820
1.849426	9065.357422
1.849516	9077.746094
1.849605	9187.055664
1.849695	9026.368164
1.849785	9066.440430
1.849874	9047.680664
1.849964	9188.057617
1.850053	9120.861328
1.850143	9039.852539
1.850233	9055.685547
1.850322	9306.597656
1.850412	9090.791992
1.850502	9182.640625
1.850591	9274.458984
1.850681	9145.133789
1.850771	9326.742188
1.850861	9245.802734
1.850950	9099.278320
1.851040	9432.723633
1.851130	9438.108398
1.851220	9322.687500
1.851310	9214.205078
1.851399	9423.199219
1.851489	9273.335938
1.851579	9258.045898
1.851669	9297.940430
1.851759	9144.721680
1.851849	9319.081055
1.851939	9376.181641
1.852029	9171.324219
1.852119	9304.242188
1.852208	9085.679688
1.852298	9356.365234
1.852389	9230.862305
1.852479	9132.949219
1.852569	9004.079102
1.852659	9123.124023
1.852749	9204.265625
1.852839	9154.602539
1.852929	9197.861328
1.853019	9223.904297
1.853109	9449.454102
1.853199	9262.207031
1.853289	9216.011719
1.853379	9235.157227
1.853470	9374.617188
1.853560	9376.544922
1.853650	9485.006836
1.853740	9490.351563
1.853830	9351.404297
1.853921	9322.418945
1.854011	9465.163086
1.854101	9364.057617
1.854191	9214.919922
1.854282	9100.156250
1.854372	9352.672852
1.854462	9272.239258
1.854553	9387.403320
1.854643	9331.003906
1.854733	9463.270508
1.854824	9238.835938
1.854914	9436.222656
1.855004	9520.411133
1.855095	9347.491211
1.855185	9126.645508
1.855276	9402.735352
1.855366	9168.247070
1.855457	9235.282227
1.855547	9518.070313
1.855638	9136.424805
1.855728	9347.235352
1.855819	9184.833984
1.855909	9248.388672
1.856000	9400.901367
1.856091	9183.821289
1.856181	9271.292969
1.856272	9249.277344
1.856362	9381.169922
1.856453	9396.757813
1.856544	9302.933594
1.856634	9356.130859
1.856725	9433.235352
1.856816	9431.716797
1.856907	9358.447266
1.856997	9237.375000
1.857088	9290.538086
1.857179	9582.741211
1.857270	9441.202148
1.857360	9282.639648
1.857451	9489.365234
1.857542	9358.148438
1.857633	9469.249023
1.857724	9607.609375
1.857815	9343.397461
1.857905	9239.572266
1.857996	9432.463867
1.858087	9444.583984
1.858178	9426.019531
1.858269	9560.842773
1.858360	9382.089844
1.858451	9288.580078
1.858542	9338.188477
1.858633	9340.091797
1.858724	9369.241211
1.858815	9469.889648
1.858906	9458.151367
1.858997	9606.410156
1.859088	9478.932617
1.859179	9508.034180
1.859270	9326.173828
1.859362	9521.984375
1.859453	9540.860352
1.859544	9399.891602
1.859635	9418.780273
1.859726	9485.259766
1.859817	9497.330078
1.859909	9502.598633
1.860000	9269.999023
1.860091	9428.192383
1.860182	9508.203125
1.860273	9326.661133
1.860365	9396.474609
1.860456	9493.427734
1.860547	9288.211914
1.860639	9385.151367
1.860730	9305.584961
1.860821	9399.096680
1.860913	9343.302734
1.861004	9260.388672
1.861096	9408.126953
1.861187	9518.515625
1.861278	9466.127930
1.861370	9427.315430
1.861461	9459.692383
1.861553	9529.334961
1.861644	9310.953125
1.861736	9549.983398
1.861827	9206.341797
1.861919	9330.166016
1.862010	9443.791992
1.862102	9171.428711
1.862193	9329.047852
1.862285	9327.546875
1.862376	9349.733398
1.862468	9473.414063
1.862560	9339.959961
1.862651	9392.573242
1.862743	9299.755859
1.862835	9240.779297
1.862926	9472.556641
1.863018	9460.892578
1.863110	9212.663086
1.863201	9268.624023
1.863293	9263.753906
1.863385	9586.544922
1.863477	9193.226563
1.863569	9289.675781
1.863660	9362.458984
1.863752	9468.977539
1.863844	9261.566406
1.863936	9354.566406
1.864028	9477.904297
1.864120	9395.414063
1.864212	9323.068359
1.864303	9274.353516
1.864395	9336.928711
1.864487	9294.969727
1.864579	9283.362305
1.864671	9389.718750
1.864763	9381.468750
1.864855	9393.436523
1.864947	9186.434570
1.865039	9319.683594
1.865131	9146.435547
1.865223	9222.407227
1.865315	9466.679688
1.865408	9320.419922
1.865500	9332.381836
1.865592	9441.922852
1.865684	9326.015625
1.865776	9250.510742
1.865868	9272.566406
1.865960	9318.152344
1.866053	9232.598633
1.866145	9187.412109
1.866237	9320.378906
1.866329	9060.115234
1.866421	9263.620117
1.866514	9339.398438
1.866606	9324.459961
1.866698	9205.416016
1.866791	9106.556641
1.866883	9309.889648
1.866975	9143.908203
1.867068	8967.912109
1.867160	9184.591797
1.867252	9199.889648
1.867345	9174.927734
1.867437	9220.409180
1.867530	9339.654297
1.867622	9204.031250
1.867715	9112.034180
1.867807	9100.512695
1.867900	9159.374023
1.867992	9157.900391
1.868085	9079.370117
1.868177	9064.510742
1.868270	9213.768555
1.868362	9148.661133
1.868455	9274.419922
1.868547	9293.013672
1.868640	9234.618164
1.868733	9149.469727
1.868825	9107.845703
1.868918	9253.581055
1.869011	9135.020508
1.869103	9150.273438
1.869196	9025.078125
1.869289	9067.089844
1.869381	9089.031250
1.869474	9000.670898
1.869567	8985.856445
1.869660	9007.798828
1.869752	8986.306641
1.869845	8938.099609
1.869938	9233.882813
1.870031	9135.566406
1.870124	9077.342773
1.870216	9009.124023
1.870309	9207.918945
1.870402	8882.761719
1.870495	9061.495117
1.870588	8966.635742
1.870681	9128.621094
1.870774	9000.433594
1.870867	8872.286133
1.870960	9017.540039
1.871053	9032.755859
1.871146	9097.954102
1.871239	8949.880859
1.871332	8968.430664
1.871425	9076.910156
1.871518	9042.146484
1.871611	9323.734375
1.871704	9195.718750
1.871797	9124.333984
1.871891	8889.885742
1.871984	8948.355469
1.872077	8973.534180
1.872170	8942.150391
1.872263	9013.887695
1.872356	8962.553711
1.872450	9017.638672
1.872543	9039.460938
1.872636	8908.370117
1.872729	8853.761719
1.872823	8971.963867
1.872916	9040.291992
1.873009	8909.284180
1.873103	8874.638672
1.873196	8939.626953
1.873289	8828.620117
1.873383	8614.737305
1.873476	8878.888672
1.873569	8930.559570
1.873663	8958.986328
1.873756	8851.381836
1.873850	8597.860352
1.873943	8931.449219
1.874037	8969.804688
1.874130	8792.641602
1.874224	8907.250977
1.874317	8942.276367
1.874411	8821.539063
1.874504	9018.920898
1.874598	8719.317383
1.874691	8681.480469
1.874785	8680.083984
1.874879	8880.671875
1.874972	8554.797852
1.875066	8755.340820
1.875160	8717.527344
1.875253	8679.724609
1.875347	8608.849609
1.875441	8551.228516
1.875534	8728.458008
1.875628	8690.677734
1.875722	8778.553711
1.875816	8648.211914
1.875909	8822.005859
1.876003	8602.467773
1.876097	8736.560547
1.876191	8804.535156
1.876285	8571.892578
1.876378	8639.871094
1.876472	8612.064453
1.876566	8719.633789
1.876660	8543.272461
1.876754	9007.280273
1.876848	8745.127930
1.876942	8367.576172
1.877036	8603.757813
1.877130	8707.924805
1.877224	8676.842773
1.877318	8573.228516
1.877412	8383.928711
1.877506	8494.656250
1.877600	8315.316406
1.877694	8571.010742
1.877788	8530.095703
1.877882	8558.371094
1.877976	8652.511719
1.878070	8611.602539
1.878165	8567.414063
1.878259	8539.699219
1.878353	8650.239258
1.878447	8589.609375
1.878541	8571.775391
1.878635	8461.828125
1.878730	8536.125000
1.878824	8515.018555
1.878918	8424.862305
1.879012	8522.143555
1.879107	8412.291016
1.879201	8502.968750
1.879295	8554.182617
1.879390	8513.377930
1.879484	8439.733398
1.879578	8559.910156
1.879673	8443.587891
1.879767	8396.258789
1.879862	8388.342773
1.879956	8380.428711
1.880050	8405.337891
1.880145	8394.141602
1.880239	8346.857422
1.880334	8086.358398
1.880428	8226.095703
1.880523	8205.095703
1.880617	8357.884766
1.880712	8172.952148
1.880807	8250.305664
1.880901	8212.928711
1.880996	8300.081055
1.881090	8151.314941
1.881185	8303.963867
1.881280	8056.988281
1.881374	8173.580566
1.881469	8326.151367
1.881564	8190.593750
1.881658	8402.028320
1.881753	8040.694336
1.881848	8255.356445
1.881943	8172.240723
1.882037	8007.377441
1.882132	8169.612793
1.882227	8331.795898
1.882322	8062.364258
1.882416	8070.874512
1.882511	8131.675781
1.882606	8074.814941
1.882701	8214.010742
1.882796	8104.885742
1.882891	8041.523926
1.882986	8063.090820
1.883081	7914.859863
1.883176	8142.114746
1.883271	8016.767578
1.883365	8035.060059
1.883461	7903.243652
1.883555	8025.951172
1.883650	8031.184570
1.883746	7814.631836
1.883841	7963.381836
1.883936	7896.891602
1.884031	7986.900391
1.884126	7894.352051
1.884221	7870.270020
1.884316	7930.914063
1.884411	7923.123047
1.884506	7791.555176
1.884602	7927.088379
1.884697	7903.019531
1.884792	7800.819824
1.884887	7763.757813
1.884982	7876.424805
1.885078	7946.750488
1.885173	7740.491211
1.885268	7833.587891
1.885363	7842.085938
1.885459	7782.287109
1.885554	7914.350586
1.885649	7945.588379
1.885745	7853.295898
1.885840	7826.032715
1.885936	7590.811035
1.886031	7683.810059
1.886126	7705.313965
1.886222	7700.826660
1.886317	7660.619629
1.886413	7795.756836
1.886508	7641.924316
1.886604	7533.583008
1.886699	7791.996582
1.886795	7479.243652
1.886890	7747.314941
1.886986	7541.713379
1.887082	7670.229492
1.887177	7707.908691
1.887273	7525.106934
1.887368	7517.413086
1.887464	7626.403320
1.887560	7570.086426
1.887655	7575.349121
1.887751	7515.818359
1.887847	7427.155273
1.887942	7429.199707
1.888038	7564.001465
1.888134	7501.272949
1.888230	7525.962402
1.888325	7453.550293
1.888421	7588.260742
1.888517	7250.557617
1.888613	7618.169434
1.888709	7335.553711
1.888804	7282.632813
1.888900	7536.894531
1.888996	7435.465332
1.889092	7401.946777
1.889188	7326.425781
1.889284	7160.453613
1.889380	7311.146484
1.889476	7393.956543
1.889572	7305.565918
1.889668	7330.224121
1.889764	7128.869141
1.889860	7121.266113
1.889956	7291.184570
1.890052	7222.243164
1.890148	7195.269043
1.890244	7048.939453
1.890340	7163.925293
1.890436	7230.498535
1.890532	7342.193359
1.890628	7150.797363
1.890725	7301.150391
1.890821	7090.484863
1.890917	7153.792969
1.891013	7362.066895
1.891109	7116.057129
1.891206	7118.133301
1.891302	7030.039063
1.891398	7028.908691
1.891495	7072.848633
1.891591	7097.461914
1.891687	7138.158203
1.891783	7043.694824
1.891880	7016.824219
1.891976	6973.877930
1.892072	7024.215820
1.892169	7026.302246
1.892265	7054.108887
1.892362	6930.816895
1.892458	6942.559082
1.892555	6931.801758
1.892651	6988.522949
1.892748	6829.981445
1.892844	6877.064453
1.892941	6856.688965
1.893037	6855.586426
1.893134	6893.010254
1.893230	6766.710938
1.893327	6983.868652
1.893423	6867.222168
1.893520	6737.779297
1.893616	6993.331543
1.893713	6777.308594
1.893810	6901.288574
1.893906	6826.431641
1.894003	6751.598145
1.894100	6686.404785
1.894197	6829.547852
1.894293	6777.180176
1.894390	6811.332520
1.894487	6659.681152
1.894584	6520.890137
1.894680	6551.864258
1.894777	6909.408203
1.894874	6684.209473
1.894971	6478.287109
1.895068	6666.058105
1.895165	6623.390137
1.895262	6641.520020
1.895358	6704.425293
1.895455	6680.959961
1.895552	6651.106445
1.895649	6662.825195
1.895746	6626.590820
1.895843	6625.524902
1.895940	6534.982910
1.896037	6642.564453
1.896134	6481.768066
1.896231	6742.637695
1.896328	6502.038086
1.896425	6478.641113
1.896523	6618.069336
1.896620	6540.396973
1.896717	6373.388184
1.896814	6468.092285
1.896911	6521.289551
1.897008	6587.229492
1.897105	6429.887695
1.897203	6581.921387
1.897300	6462.892090
1.897397	6359.840332
1.897494	6323.755859
1.897591	6341.859863
1.897689	6423.685059
1.897786	6263.359863
1.897883	6437.545410
1.897981	6334.596191
1.898078	6467.317871
1.898175	6154.266113
1.898273	6385.655762
1.898370	6445.101074
1.898468	6370.872559
1.898565	6245.759766
1.898662	6292.473633
1.898760	6301.003906
1.898857	6245.926758
1.898955	6298.977051
1.899052	6173.975586
1.899150	6385.953613
1.899247	6311.828613
1.899345	6123.332031
1.899442	6150.941406
1.899540	6261.133789
1.899638	6056.854980
1.899735	6211.485840
1.899833	6146.984375
1.899930	6133.297363
1.900028	6103.744141
1.900126	6147.192383
1.900223	6162.068848
1.900321	6084.936523
1.900419	6023.688965
1.900517	5943.432129
1.900614	6145.420898
1.900712	5859.086914
1.900810	6102.233887
1.900908	5882.558105
1.901006	6258.719238
1.901103	6013.741211
1.901201	6015.941406
1.901299	5919.950684
1.901397	6055.176270
1.901495	5905.380371
1.901593	6018.403320
1.901691	5862.330566
1.901789	5950.004395
1.901887	5945.882813
1.901984	6039.842773
1.902083	6061.014648
1.902181	5867.104980
1.902279	5869.323730
1.902377	6039.119141
1.902475	5684.078125
1.902573	5907.582031
1.902671	5758.097168
1.902769	5791.928711
1.902867	5762.562988
1.902965	5843.764648
1.903063	6016.530273
1.903161	5876.620117
1.903260	5954.606445
1.903358	5874.729492
1.903456	5959.002930
1.903554	5819.191406
1.903653	5751.995605
1.903751	5716.368164
1.903849	5683.906250
1.903947	5673.530762
1.904045	5776.673828
1.904144	5621.262207
1.904242	5718.075684
1.904341	5673.032227
1.904439	5883.248047
1.904537	5693.261719
1.904636	5566.338867
1.904734	5622.137207
1.904832	5564.547852
1.904931	5610.882324
1.905029	5531.276367
1.905128	5716.096680
1.905226	5586.145020
1.905325	5733.137207
1.905423	5556.032227
1.905522	5551.992676
1.905620	5673.758301
1.905719	5575.363281
1.905818	5514.728516
1.905916	5542.133301
1.906015	5358.943359
1.906114	5691.193359
1.906212	5495.469727
1.906311	5579.407715
1.906410	5434.021484
1.906508	5552.487793
1.906607	5495.073730
1.906706	5434.538574
1.906804	5477.610352
1.906903	5404.542969
1.907002	5566.850586
1.907101	5374.566406
1.907200	5398.797363
1.907298	5391.655762
1.907397	5422.148438
1.907496	5283.313965
1.907595	5382.783691
1.907694	5347.437988
1.907793	5371.649414
1.907892	5355.117676
1.907991	5432.580078
1.908090	5337.731934
1.908188	5449.624023
1.908288	5238.938965
1.908386	5200.524414
1.908486	5309.253418
1.908584	5255.189941
1.908684	5332.580566
1.908783	5366.140625
1.908882	5205.726563
1.908981	5154.841797
1.909080	5085.208984
1.909179	5096.898438
1.909278	5277.411133
1.909377	5067.124512
1.909477	5169.448242
1.909576	5174.866211
1.909675	5245.895020
1.909774	5185.696289
1.909873	5169.244629
1.909973	5093.462891
1.910072	5261.253418
1.910171	5119.920898
1.910271	5159.675293
1.910370	5049.613281
1.910469	5011.355957
1.910568	5091.666504
1.910668	5028.459473
1.910767	5099.384766
1.910867	5279.430176
1.910966	5085.271973
1.911065	5143.683594
1.911165	4934.024902
1.911264	5092.166016
1.911364	4969.827148
1.911463	5050.027344
1.911563	5049.214355
1.911662	4986.114258
1.911762	5056.930664
1.911862	5046.776855
1.911961	5002.384277
1.912061	4914.433105
1.912160	5013.221680
1.912260	4919.073730
1.912359	5020.940430
1.912459	4877.055664
1.912559	4935.357910
1.912659	4900.360840
1.912758	4902.680664
1.912858	5035.551270
1.912958	4801.650879
1.913057	4931.387695
1.913157	4896.417969
1.913257	4771.375488
1.913357	4891.736328
1.913457	4890.948730
1.913556	4849.798340
1.913656	4817.974121
1.913756	4984.807129
1.913856	4844.353516
1.913956	4896.322266
1.914056	4817.975098
1.914156	4801.689941
1.914256	4726.484375
1.914356	4840.455566
1.914456	4904.784180
1.914556	4848.196777
1.914656	4958.993652
1.914756	4747.472168
1.914856	4802.479004
1.914956	4711.867188
1.915056	4751.374512
1.915156	4843.516113
1.915256	4777.712402
1.915356	4773.847656
1.915456	4726.648438
1.915557	4735.171875
1.915657	4551.840820
1.915757	4801.712891
1.915857	4782.379395
1.915957	4732.123535
1.916057	4567.464844
1.916158	4798.621582
1.916258	4634.004883
1.916358	4633.258789
1.916458	4632.513184
1.916559	4671.936035
1.916659	4665.004883
1.916759	4636.453613
1.916860	4749.978516
1.916960	4684.367676
1.917061	4424.270020
1.917161	4655.077148
1.917262	4648.154785
1.917362	4520.883301
1.917462	4523.240723
1.917563	4618.145508
1.917663	4589.642090
1.917764	4616.658691
1.917864	4606.665039
1.917965	4624.420898
1.918066	4562.027344
1.918166	4570.538574
1.918267	4502.010254
1.918367	4584.471680
1.918468	4423.549316
1.918569	4564.515625
1.918669	4616.131348
1.918770	4599.993164
1.918871	4623.880371
1.918971	4419.988770
1.919072	4483.904297
1.919173	4504.721191
1.919273	4470.154297
1.919374	4414.066406
1.919475	4379.525391
1.919576	4572.545898
1.919677	4448.828613
1.919777	4543.407227
1.919878	4336.749023
1.919979	4517.359863
1.920080	4522.777344
1.920181	4291.645508
1.920282	4469.104492
1.920383	4520.592773
1.920484	4403.183105
1.920585	4316.512207
1.920686	4521.478516
1.920787	4373.434570
1.920888	4249.986816
1.920989	4322.936523
1.921090	4377.457031
1.921191	4214.195801
1.921292	4339.248047
1.921393	4188.309570
1.921494	4273.472656
1.921595	4217.611816
1.921696	4302.742188
1.921798	4427.679199
1.921899	4390.202148
1.922000	4254.716309
1.922101	4453.104004
1.922202	4311.527344
1.922304	4286.339355
1.922405	4285.648926
1.922506	4229.866211
1.922607	4275.087891
1.922709	4271.339844
1.922810	4279.829102
1.922911	4196.554688
1.923013	4299.858398
1.923114	4213.549316
1.923216	4286.244141
1.923317	4184.681152
1.923418	4153.444824
1.923520	4229.169434
1.923621	4121.554199
1.923723	4172.821289
1.923824	4150.769043
1.923926	4217.283691
1.924027	4271.563965
1.924129	4234.242188
1.924230	4093.153564
1.924332	4324.432617
1.924433	4143.707520
1.924535	4069.819824
1.924637	4148.473145
1.924738	4163.054199
1.924840	4110.544434
1.924942	4070.246826
1.925043	4051.300781
1.925145	4023.217285
1.925247	4080.469727
1.925348	4165.125977
1.925450	4204.058105
1.925552	4203.380859
1.925654	3980.386719
1.925756	4107.633301
1.925857	4070.437988
1.925959	4085.001953
1.926061	4175.647949
1.926163	4092.814697
1.926265	4153.005371
1.926367	4194.924316
1.926468	4121.251953
1.926570	3965.495605
1.926672	4031.748535
1.926774	4028.058838
1.926876	4066.924072
1.926978	3996.370361
1.927080	4053.459229
1.927182	4146.986816
1.927284	4024.814697
1.927386	4033.277588
1.927488	3862.577148
1.927591	4010.725098
1.927693	4016.149902
1.927795	3894.096924
1.927897	3969.335938
1.927999	4005.106445
1.928101	3928.618896
1.928203	3876.421631
1.928306	3863.666016
1.928408	3878.204590
1.928510	3874.547852
1.928612	3867.860840
1.928715	3994.529297
1.928817	3978.734131
1.928919	4011.420410
1.929022	3850.221924
1.929124	3910.177246
1.929226	3752.075195
1.929329	3963.417969
1.929431	3926.451172
1.929533	3925.818359
1.929636	3840.447754
1.929738	3830.750977
1.929841	3866.438232
1.929943	4077.557861
1.930046	3943.826660
1.930148	3897.832275
1.930251	3954.649170
1.930353	3890.530029
1.930456	3992.666504
1.930558	3804.660889
1.930661	4030.658936
1.930764	3752.077393
1.930866	3808.862549
1.930969	3947.169434
1.931072	3922.376953
1.931174	3816.078125
1.931277	3915.075439
1.931380	3872.191406
1.931482	3844.408936
1.931585	3741.207764
1.931688	3852.219482
1.931791	3827.469482
1.931893	3769.555176
1.931996	3964.932861
1.932099	3897.970947
1.932202	3915.427734
1.932305	3752.056641
1.932407	3739.398926
1.932510	3675.528809
1.932613	3759.279297
1.932716	3770.720215
1.932819	3824.315186
1.932922	3865.849609
1.933025	3913.391357
1.933128	3789.357910
1.933231	3707.495117
1.933334	3724.950439
1.933437	3724.349854
1.933540	3774.883301
1.933643	3623.905273
1.933746	3839.818115
1.933849	3691.884521
1.933953	3745.395996
1.934056	3747.797607
1.934159	3792.267822
1.934262	3755.602539
1.934365	3721.953125
1.934468	3748.384521
1.934572	3672.704590
1.934675	3732.163330
1.934778	3677.524414
1.934881	3682.934570
1.934985	3739.361328
1.935088	3741.759033
1.935191	3639.151611
1.935295	3611.567871
1.935398	3724.953613
1.935501	3619.399170
1.935605	3639.802979
1.935708	3609.239014
1.935812	3668.601318
1.935915	3611.071777
1.936018	3664.422119
1.936122	3690.792969
1.936225	3618.310791
1.936329	3635.696289
1.936432	3620.138184
1.936536	3535.726807
1.936639	3738.705078
1.936743	3678.244629
1.936847	3671.666504
1.936950	3662.098633
1.937054	3658.516602
1.937157	3571.189209
1.937261	3567.622803
1.937365	3632.826904
1.937468	3686.052002
1.937572	3682.468506
1.937676	3631.069336
1.937779	3642.436035
1.937883	3549.233887
1.937987	3665.157715
1.938091	3676.512939
1.938195	3637.100342
1.938298	3529.030518
1.938402	3621.001465
1.938506	3626.386719
1.938610	3625.801758
1.938714	3669.972656
1.938818	3532.151611
1.938922	3749.322998
1.939026	3531.012207
1.939130	3575.169434
1.939234	3520.929199
1.939337	3636.613525
1.939442	3615.164551
1.939546	3492.406738
1.939650	3497.802002
1.939754	3488.301025
1.939858	3490.716797
1.939962	3573.536133
1.940066	3528.297607
1.940170	3581.314209
1.940274	3613.477783
1.940378	3577.182617
1.940482	3475.437012
1.940587	3549.252930
1.940691	3527.858154
1.940795	3444.013916
1.940899	3511.851563
1.941004	3520.204590
1.941108	3590.980469
1.941212	3409.097656
1.941316	3554.161377
1.941421	3568.443848
1.941525	3582.721924
1.941629	3549.470947
1.941734	3507.321045
1.941838	3506.755127
1.941943	3437.906250
1.942047	3475.939941
1.942152	3540.672363
1.942256	3590.546631
1.942360	3447.555420
1.942465	3571.589355
1.942569	3440.510742
1.942674	3499.265137
1.942778	3477.945557
1.942883	3554.461670
1.942988	3509.427490
1.943092	3473.298340
1.943197	3496.442383
1.943301	3516.616455
1.943406	3563.443115
1.943511	3441.440186
1.943616	3506.030518
1.943720	3472.896973
1.943825	3395.370850
1.943930	3480.655273
1.944034	3438.663818
1.944139	3452.902832
1.944244	3549.969727
1.944349	3457.703857
1.944453	3495.591553
1.944558	3429.975830
1.944663	3438.291504
1.944768	3431.824707
1.944873	3499.245850
1.944978	3457.311523
1.945083	3459.708008
1.945188	3382.345215
1.945293	3384.752686
1.945397	3393.065430
1.945503	3489.953125
1.945608	3389.018066
1.945712	3500.632813
1.945818	3337.754395
1.945922	3340.166260
1.946028	3495.987549
1.946133	3454.126953
1.946238	3459.468018
1.946343	3467.755615
1.946448	3316.832764
1.946553	3328.088623
1.946658	3398.287598
1.946764	3406.579346
1.946869	3479.689209
1.946974	3414.317383
1.947079	3422.602295
1.947184	3469.169189
1.947290	3344.940430
1.947395	3450.385010
1.947500	3337.973389
1.947606	3419.840088
1.947711	3357.493652
1.947816	3395.198975
1.947922	3344.642822
1.948027	3411.749512
1.948133	3402.376465
1.948238	3316.561035
1.948343	3392.458496
1.948449	3312.550537
1.948554	3379.607910
1.948660	3452.520020
1.948765	3372.640625
1.948871	3413.219238
1.948976	3403.857422
1.949082	3344.579346
1.949187	3344.039063
1.949293	3249.563965
1.949399	3381.114014
1.949504	3436.323975
1.949610	3374.153809
1.949716	3426.413330
1.949821	3261.606445
1.949927	3390.114990
1.950033	3278.145752
1.950138	3350.908203
1.950244	3482.271240
1.950350	3223.804443
1.950456	3343.424316
1.950562	3325.305420
1.950667	3392.142578
1.950773	3297.871826
1.950879	3399.831787
1.950985	3267.527588
1.951091	3278.709473
1.951197	3281.106689
1.951303	3397.635742
1.951409	3294.676758
1.951514	3188.825439
1.951620	3281.912109
1.951726	3293.080322
1.951832	3292.548340
1.951939	3321.252686
1.952044	3218.405518
1.952150	3290.952881
1.952257	3343.021240
1.952363	3354.167969
1.952469	3391.602783
1.952575	3306.351318
1.952681	3352.542480
1.952787	3311.122803
1.952893	3313.507324
1.953000	3286.701660
1.953106	3347.458008
1.953212	3177.674561
1.953318	3261.768799
1.953424	3293.329102
1.953531	3266.547852
1.953637	3251.439453
1.953743	3250.914063
1.953850	3197.916260
1.953956	3407.256104
1.954062	3202.711182
1.954169	3371.190186
1.954275	3370.645508
1.954382	3198.245850
1.954488	3317.134277
1.954594	3331.157471
1.954701	3362.644287
1.954807	3210.733643
1.954914	3306.259277
1.955020	3212.605957
1.955127	3357.561523
1.955234	3330.837646
1.955340	3295.396729
1.955447	3262.875000
1.955553	3369.929688
1.955660	3343.220703
1.955767	3301.986816
1.955873	3307.265381
1.955980	3315.447998
1.956087	3274.238525
1.956193	3294.042725
1.956300	3371.927246
1.956407	3272.650879
1.956514	3344.706787
1.956620	3294.816406
1.956727	3259.454346
1.956834	3285.045410
1.956941	3304.824951
1.957048	3266.577148
1.957154	3280.551758
1.957261	3300.322266
1.957368	3227.297852
1.957475	3223.876953
1.957582	3246.545166
1.957689	3315.577881
1.957796	3173.051514
1.957903	3279.738525
1.958010	3273.414551
1.958117	3327.916016
1.958224	3275.251953
1.958331	3289.199463
1.958438	3323.407227
1.958545	3302.608398
1.958652	3229.724121
1.958759	3174.224365
1.958867	3399.371582
1.958974	3291.795166
1.959081	3273.909912
1.959188	3279.163818
1.959295	3264.177490
1.959403	3286.775635
1.959510	3173.523438
1.959617	3366.627441
1.959724	3169.607666
1.959832	3278.872314
1.959939	3284.118896
1.960046	3266.260254
1.960154	3135.795654
1.960261	3369.135986
1.960368	3180.966064
1.960476	3186.223877
1.960583	3148.195557
1.960690	3291.943359
1.960798	3121.215332
1.960905	3169.741943
1.961013	3154.810547
1.961120	3263.864746
1.961228	3263.336670
1.961336	3306.043945
1.961443	3253.635498
1.961551	3290.567627
1.961658	3223.773682
1.961766	3272.220215
1.961874	3251.530762
1.961981	3242.366211
1.962089	3299.423340
1.962197	3272.982178
1.962304	3096.885742
1.962412	3352.498291
1.962520	3242.621826
1.962627	3242.097168
1.962735	3313.479736
1.962843	3301.440430
1.962951	3257.776123
1.963058	3242.874512
1.963166	3268.219727
1.963274	3307.926270
1.963382	3235.553711
1.963490	3191.934814
1.963598	3240.251953
1.963706	3211.006592
1.963814	3187.514160
1.963922	3367.882080
1.964030	3183.611816
1.964138	3240.501465
1.964246	3208.409668
1.964354	3159.112305
1.964462	3233.191162
1.964570	3370.350342
1.964678	3278.031494
1.964786	3263.163574
1.964894	3262.635498
1.965002	3325.171143
1.965110	3293.106445
1.965219	3261.051758
1.965327	3234.737793
1.965435	3136.815430
1.965543	3325.345703
1.965651	3256.077637
1.965760	3209.738037
1.965868	3246.435059
1.965976	3174.350830
1.966084	3228.212891
1.966193	3221.967529
1.966301	3161.365967
1.966410	3255.250732
1.966518	3200.383057
1.966626	3217.022461
1.966735	3193.628906
1.966843	3278.871338
1.966952	3306.922363
1.967060	3243.517334
1.967169	3302.994629
1.967277	3179.617676
1.967386	3270.505615
1.967494	3212.858643
1.967603	3206.627686
1.967711	3254.642822
1.967820	3205.589600
1.967928	3247.880859
1.968037	3181.723145
1.968146	3318.156982
1.968254	3169.282471
1.968363	3345.604248
1.968472	3268.066162
1.968580	3278.942139
1.968689	3244.201660
1.968798	3161.016846
1.968907	3197.553223
1.969015	3211.282471
1.969124	3145.236816
1.969233	3204.545654
1.969342	3124.281982
1.969451	3231.983643
1.969560	3202.989258
1.969669	3094.298096
1.969777	3293.029541
1.969886	3386.405029
1.969995	3289.117920
1.970104	3134.966064
1.970213	3197.033691
1.970322	3350.085205
1.970431	3292.674316
1.970540	3127.249756
1.970649	3220.545654
1.970758	3177.393555
1.970868	3182.562012
1.970977	3298.532227
1.971086	3224.140869
1.971195	3172.495117
1.971304	3248.654053
1.971413	3179.985352
1.971522	3205.019531
1.971632	3125.026367
1.971741	3249.387451
1.971850	3231.836670
1.971959	3171.736572
1.972068	3259.154785
1.972178	3204.741699
1.972287	3175.866455
1.972396	3237.725098
1.972506	3276.885986
1.972615	3168.654785
1.972724	3170.975342
1.972834	3099.628906
1.972943	3257.765869
1.973053	3104.289551
1.973162	3265.206055
1.973272	3213.710693
1.973381	3150.907959
1.973491	3187.194336
1.973600	3257.430176
1.973710	3118.250488
1.973819	3160.182861
1.973929	3292.620117
1.974039	3269.460449
1.974148	3234.997314
1.974258	3197.717529
1.974367	3177.411133
1.974477	3171.243408
1.974587	3266.812256
1.974697	3229.551270
1.974806	3164.051758
1.974916	3157.889893
1.975026	3340.946533
1.975135	3165.337402
1.975245	3207.172607
1.975355	3223.589355
1.975465	3169.443115
1.975575	3270.515625
1.975685	3188.165527
1.975794	3286.381104
1.975904	3263.284668
1.976014	3087.914795
1.976124	3160.722900
1.976234	3250.421631
1.976344	3357.003174
1.976454	3255.004395
1.976564	3305.195801
1.976674	3211.689941
1.976784	3180.184326
1.976894	3202.199707
1.977004	3215.760010
1.977114	3119.513428
1.977224	3256.942139
1.977335	3267.672363
1.977445	3163.021729
1.977555	3362.275879
1.977665	3277.335938
1.977775	3217.737549
1.977885	3340.954834
1.977996	3253.247559
1.978106	3261.154053
1.978216	3224.083740
1.978327	3189.835938
1.978437	3147.168945
1.978547	3084.849365
1.978658	3334.355469
1.978768	3117.552246
1.978878	3066.500000
1.978989	3161.464111
1.979099	3236.747070
1.979210	3137.984619
1.979320	3230.084473
1.979430	3209.919678
1.979541	3282.339844
1.979651	3163.999023
1.979762	3233.598633
1.979872	3168.580811
1.979983	3193.299316
1.980094	3290.891357
1.980204	3253.922607
1.980315	3250.592773
1.980425	3334.118896
1.980536	3232.730225
1.980647	3142.577881
1.980757	3189.675293
1.980868	3334.755859
1.980979	3090.657715
1.981090	3104.151611
1.981200	3380.709473
1.981311	3215.070313
1.981422	3287.288818
1.981533	3208.432861
1.981644	3227.489746
1.981754	3168.243164
1.981865	3218.054932
1.981976	3228.714600
1.982087	3200.240967
1.982198	3289.146240
1.982309	3322.141357
1.982420	3167.953857
1.982531	3164.646484
1.982642	3189.267334
1.982753	3211.087891
1.982864	3263.610840
1.982975	3232.376465
1.983086	3203.943115
1.983197	3315.040771
1.983308	3292.182861
1.983419	3247.016113
1.983530	3277.168945
1.983642	3229.230469
1.983753	3198.036377
1.983864	3306.238525
1.983975	3155.189453
1.984086	3280.084229
1.984198	3276.765381
1.984309	3281.805420
1.984420	3242.276123
1.984532	3269.600098
1.984643	3185.532715
1.984754	3268.538574
1.984865	3262.440918
1.984977	3275.827148
1.985088	3258.598877
1.985200	3160.689697
1.985311	3201.904297
1.985422	3237.542480
1.985534	3284.292969
1.985645	3119.710938
1.985757	3249.866211
1.985868	3188.187744
1.985980	3321.068604
1.986091	3351.094971
1.986203	3175.521973
1.986315	3294.451172
1.986426	3174.490967
1.986538	3185.083008
1.986650	3334.493164
1.986761	3286.760010
1.986873	3269.573242
1.986985	3205.215576
1.987096	3199.145752
1.987208	3129.271729
1.987320	3275.771240
1.987432	3164.308105
1.987543	3219.250732
1.987655	3260.313721
1.987767	3126.731689
1.987879	3295.283936
1.987991	3183.907715
1.988103	3321.919434
1.988214	3252.126709
1.988326	3243.289551
1.988438	3162.455322
1.988550	3294.842773
1.988662	3244.477783
1.988774	3313.147705
1.988886	3260.028320
1.988998	3336.974121
1.989110	3228.537598
1.989222	3139.498535
1.989334	3172.176270
1.989447	3285.033203
1.989559	3284.499512
1.989671	3178.923340
1.989783	3302.779297
1.989895	3238.685059
1.990007	3301.706299
1.990119	3185.145508
1.990232	3179.104004
1.990344	3266.958252
1.990456	3216.726807
1.990568	3252.093262
1.990681	3188.079346
1.990793	3242.757080
1.990905	3195.321289
1.991018	3313.434570
1.991130	3183.249268
1.991242	3207.553955
1.991355	3245.638428
1.991467	3308.524414
1.991580	3335.553223
1.991692	3304.692871
1.991805	3122.275635
1.991917	3083.193848
1.992030	3198.397217
1.992142	3200.631836
1.992255	3169.817871
1.992367	3240.894287
1.992480	3232.108398
1.992592	3294.893311
1.992705	3280.596924
1.992818	3136.973633
1.992930	3257.520264
1.993043	3201.974121
1.993156	3220.706299
1.993269	3137.684570
1.993381	3109.679443
1.993494	3125.668213
1.993607	3114.165771
1.993720	3215.341309
1.993832	3217.566162
1.993945	3252.757568
1.994058	3252.228760
1.994171	3155.577148
1.994284	3102.891602
1.994397	3162.787354
1.994510	3134.822998
1.994623	3172.737305
1.994736	3161.244873
1.994848	3317.121338
1.994962	3198.622314
1.995075	3151.474854
1.995188	3148.219971
1.995301	3161.417480
1.995414	3212.991211
1.995527	3174.094482
1.995640	3203.724609
1.995753	3238.825195
1.995866	3175.285889
1.995979	3215.857910
1.996092	3215.334961
1.996206	3187.428711
1.996319	3219.764893
1.996432	3235.666016
1.996545	3213.243652
1.996659	3212.720947
1.996772	3168.420654
1.996885	3077.628174
1.996999	3145.508057
1.997112	3177.813965
1.997225	3182.765625
1.997339	3122.102295
1.997452	3143.461914
1.997565	3241.338623
1.997679	3284.532227
1.997792	3202.034424
1.997906	3253.415283
1.998019	3176.411865
1.998133	3203.202637
1.998246	3161.726563
1.998360	3234.919189
1.998473	3122.485596
1.998587	3231.137695
1.998700	3085.998291
1.998814	3240.998779
1.998928	3172.279541
1.999041	3130.854980
1.999155	3105.804443
1.999269	3151.646729
1.999382	3224.733154
1.999496	3147.895752
1.999610	3087.433350
1.999724	3108.727295
1.999838	3170.876221
1.999951	3115.886719
2.000065	3180.737061
2.000179	3101.258545
2.000293	3059.918457
2.000407	3135.633789
2.000521	3252.146240
2.000635	3202.638672
2.000748	3234.764160
2.000862	3207.036377
2.000976	3105.885742
2.001091	3102.661133
2.001204	3167.407227
2.001318	3145.144775
2.001432	3212.580811
2.001547	3176.730469
2.001661	3246.856201
2.001775	3175.696289
2.001889	3118.140137
2.002003	3063.318359
2.002117	3106.263916
2.002231	3122.047119
2.002346	3211.113281
2.002460	3140.028076
2.002574	3307.753662
2.002688	3155.283936
2.002802	3179.183594
2.002917	3257.319092
2.003031	3113.066895
2.003145	3226.434082
2.003260	3041.571045
2.003374	3192.858398
2.003489	3116.459473
2.003603	3183.689941
2.003717	3039.590332
2.003832	3220.574219
2.003946	3236.298828
2.004061	3119.338135
2.004175	3154.025146
2.004290	3142.683838
2.004404	3182.768555
2.004519	3184.956299
2.004633	3208.787354
2.004748	3210.969971
2.004862	3102.260010
2.004977	3147.726563
2.005092	3171.547852
2.005206	3200.768066
2.005321	3192.137939
2.005436	3124.056152
2.005550	3101.930908
2.005665	3185.174805
2.005780	3146.839844
2.005895	3170.633545
2.006010	3162.016113
2.006124	3099.404785
2.006239	3190.679199
2.006354	3092.997070
2.006469	3162.654297
2.006584	3251.175293
2.006699	3172.414307
2.006814	3134.136719
2.006928	3271.160156
2.007043	3076.492676
2.007159	3116.429443
2.007273	3113.226074
2.007388	3110.023682
2.007504	3141.851563
2.007618	3160.198486
2.007734	2968.432373
2.007849	3081.064453
2.007964	3056.327148
2.008079	3090.829590
2.008194	3146.856201
2.008309	3114.045410
2.008425	2957.457275
2.008540	3096.886719
2.008655	3123.283691
2.008770	3125.464111
2.008885	3202.944092
2.009001	3175.533447
2.009116	3236.849365
2.009231	3042.787354
2.009346	3144.417725
2.009462	3098.224365
2.009577	3113.839355
2.009693	3164.369873
2.009808	3123.567139
2.009923	3109.631104
2.010039	3036.631592
2.010154	3119.354980
2.010270	3078.585938
2.010386	3107.603516
2.010501	3096.364014
2.010617	3168.292480
2.010732	3122.177002
2.010848	3033.166992
2.010963	3051.442383
2.011079	3139.416748
2.011194	3042.405518
2.011310	3240.236328
2.011426	3175.396240
2.011541	3161.482178
2.011657	3193.111816
2.011773	3082.778809
2.011889	3170.646973
2.012004	3057.676025
2.012120	3089.301758
2.012236	3040.618896
2.012352	3024.065918
2.012468	3101.168701
2.012583	3114.039307
2.012699	3041.310303
2.012815	3102.325684
2.012931	3136.581299
2.013047	3125.375488
2.013163	3098.134521
2.013279	3070.902344
2.013395	2992.906250
2.013511	3085.931152
2.013627	2962.544678
2.013743	3103.620605
2.013859	3060.386230
2.013975	3123.968262
2.014091	3123.458496
2.014208	3010.843018
2.014324	3074.401855
2.014440	3127.266357
2.014556	3228.135498
2.014672	3059.559570
2.014788	3077.729492
2.014905	3045.228271
2.015021	2999.406738
2.015137	3025.574463
2.015254	2969.109863
2.015370	3141.839600
2.015486	3040.079590
2.015603	3146.141846
2.015719	2980.489502
2.015835	2993.318359
2.015952	3059.396484
2.016068	3069.545898
2.016185	3050.412354
2.016301	3132.416260
2.016418	3099.973877
2.016534	3091.486328
2.016651	3064.381104
2.016767	3122.392334
2.016884	3036.788818
2.017000	3089.468018
2.017117	3110.229980
2.017234	3075.169678
2.017350	2915.220703
2.017467	3087.450684
2.017583	2996.622803
2.017700	3105.035400
2.017817	3112.495605
2.017934	3016.397217
2.018050	2973.427002
2.018167	3124.242920
2.018284	3105.155029
2.018401	3112.608398
2.018517	3114.753174
2.018634	2947.125732
2.018751	3076.604492
2.018868	3031.021240
2.018985	3123.324463
2.019102	2982.313965
2.019219	2979.176514
2.019336	3026.391357
2.019453	3121.284180
2.019570	3014.805664
2.019687	3043.449951
2.019804	3040.304443
2.019921	3055.695068
2.020038	3108.145508
2.020155	3025.579346
2.020272	2982.739014
2.020390	3014.006104
2.020507	3024.096680
2.020624	3147.932617
2.020741	3070.716553
2.020858	3054.347900
2.020976	3080.289063
2.021093	2955.536865
2.021210	2957.697266
2.021327	3054.994873
2.021445	3006.934326
2.021562	3022.294189
2.021679	3005.951660
2.021797	2968.486328
2.021914	2973.282227
2.022031	2890.952148
2.022149	3014.545898
2.022266	3103.788574
2.022384	3068.976318
2.022501	2984.045410
2.022619	3036.317383
2.022736	3001.532715
2.022854	3080.155762
2.022971	2926.724365
2.023089	3044.877441
2.023206	2962.669189
2.023324	2935.830811
2.023442	3061.829346
2.023559	2932.236572
2.023677	2960.732178
2.023795	3070.862549
2.023912	2951.864502
2.024030	2954.014648
2.024148	2937.737549
2.024266	2989.896240
2.024384	2939.408447
2.024501	3065.219971
2.024619	3012.105713
2.024737	3035.285156
2.024855	2921.707520
2.024973	2971.187744
2.025091	3025.909424
2.025208	2865.075684
2.025326	2980.242432
2.025445	2969.244629
2.025563	2947.741211
2.025681	3086.479004
2.025798	2983.546143
2.025917	2912.157959
2.026035	3032.454590
2.026153	2953.206543
2.026271	2955.348145
2.026389	2978.482666
2.026507	2930.767334
2.026625	2927.664551
2.026743	2893.087402
2.026861	3002.759033
2.026980	2879.030762
2.027098	3009.641602
2.027216	2993.421875
2.027334	3042.727051
2.027453	3013.405273
2.027571	2918.594971
2.027689	2863.108154
2.027808	2954.306885
2.027926	2943.349121
2.028044	2969.049561
2.028163	2942.385742
2.028281	2989.016602
2.028400	2983.293701
2.028518	2862.446777
2.028637	2885.522949
2.028755	2905.975830
2.028874	2874.117676
2.028992	2980.853271
2.029111	2888.863037
2.029229	2901.459961
2.029348	2869.623047
2.029467	2929.253906
2.029585	2832.106689
2.029704	2821.194092
2.029823	2828.567627
2.029941	2864.663818
2.030060	2905.969727
2.030179	2952.483154
2.030298	2920.678955
2.030416	2904.542725
2.030535	2898.848877
2.030654	2947.941406
2.030773	2926.591797
2.030892	2913.072998
2.031011	2823.940430
2.031129	2893.869385
2.031248	2935.102295
2.031367	2971.108887
2.031486	2926.323730
2.031605	2816.418457
2.031724	2912.340576
2.031843	2911.863525
2.031962	2919.198975
2.032081	2858.836426
2.032200	2910.433105
2.032319	2774.609863
2.032439	2917.287109
2.032557	2765.895020
2.032677	2788.855957
2.032796	2902.848389
2.032915	2873.765137
2.033034	2927.900146
2.033154	2846.825439
2.033273	2906.145752
2.033392	2812.105957
2.033511	2827.236816
2.033631	2816.381104
2.033750	2867.873779
2.033869	2838.833740
2.033989	2757.865967
2.034108	2827.518066
2.034227	2897.146973
2.034347	2852.547363
2.034466	2813.152588
2.034586	2828.260010
2.034705	2773.316162
2.034825	2796.206543
2.034944	2847.617676
2.035064	2909.383789
2.035183	2820.758301
2.035303	2846.217773
2.035423	2773.182129
2.035542	2736.448975
2.035662	2736.000488
2.035781	2769.228516
2.035901	2825.755859
2.036021	2729.476074
2.036140	2708.315186
2.036260	2790.712402
2.036380	2880.847656
2.036500	2771.681885
2.036619	2822.978027
2.036739	2794.057129
2.036859	2772.905762
2.036979	2888.832031
2.037099	2730.623535
2.037219	2743.103027
2.037339	2887.411621
2.037459	2791.309814
2.037578	2785.684082
2.037699	2730.969482
2.037818	2665.939941
2.037939	2812.725342
2.038059	2794.187012
2.038178	2770.490967
2.038299	2837.157715
2.038419	2779.906982
2.038539	2823.323486
2.038659	2815.119629
2.038779	2765.640137
2.038899	2692.961426
2.039020	2772.469971
2.039140	2821.009033
2.039260	2828.281006
2.039380	2853.594971
2.039500	2793.847656
2.039621	2785.658691
2.039741	2749.130615
2.039861	2735.799316
2.039982	2725.047852
2.040102	2778.680908
2.040222	2628.885742
2.040343	2677.367920
2.040463	2787.609375
2.040584	2727.960449
2.040704	2776.402344
2.040825	2801.673828
2.040945	2706.039551
2.041066	2818.757324
2.041186	2676.865967
2.041307	2681.568604
2.041427	2863.640869
2.041548	2747.513184
2.041668	2770.189941
2.041789	2731.195557
2.041910	2748.729492
2.042031	2619.854248
2.042151	2706.738525
2.042272	2690.888428
2.042393	2782.866699
2.042513	2674.604248
2.042634	2669.032471
2.042755	2681.424316
2.042876	2627.107910
2.042997	2739.541748
2.043118	2687.798096
2.043238	2782.234863
2.043359	2707.426514
2.043480	2758.250732
2.043601	2609.143311
2.043722	2739.406982
2.043843	2764.578857
2.043964	2689.834229
2.044085	2697.076660
2.044206	2719.681885
2.044327	2724.356445
2.044448	2695.748291
2.044569	2797.691406
2.044690	2697.422363
2.044812	2612.538818
2.044933	2770.729492
2.045054	2708.883545
2.045175	2828.643066
2.045296	2754.021973
2.045418	2625.734619
2.045539	2643.197266
2.045660	2681.101074
2.045781	2601.441895
2.045903	2672.555420
2.046024	2633.797363
2.046145	2687.002441
2.046267	2640.593262
2.046388	2696.333252
2.046510	2614.196533
2.046631	2618.872070
2.046753	2626.098145
2.046874	2620.563477
2.046995	2742.592773
2.047117	2686.023926
2.047239	2647.326416
2.047360	2557.641846
2.047482	2552.122559
2.047603	2610.333740
2.047725	2678.720459
2.047847	2696.118652
2.047968	2578.472168
2.048090	2646.830566
2.048212	2661.677734
2.048333	2623.040771
2.048455	2569.139160
2.048577	2591.629150
2.048699	2659.928467
2.048820	2557.692627
2.048942	2608.163330
2.049064	2681.514404
2.049186	2648.005371
2.049308	2601.790771
2.049430	2547.962646
2.049551	2616.190186
2.049674	2653.890625
2.049795	2663.620850
2.049917	2686.053955
2.050040	2540.787354
2.050161	2621.661621
2.050283	2547.571777
2.050405	2608.101807
2.050528	2541.656006
2.050650	2630.092529
2.050772	2629.660156
2.050894	2578.470459
2.051016	2588.196289
2.051138	2496.437500
2.051260	2589.881592
2.051383	2482.935547
2.051505	2538.314209
2.051627	2641.846680
2.051749	2633.807373
2.051872	2496.509766
2.051994	2513.837891
2.052116	2538.761230
2.052239	2535.810547
2.052361	2510.064697
2.052484	2552.703369
2.052606	2509.239014
2.052728	2460.725586
2.052851	2617.254883
2.052973	2588.985840
2.053096	2626.515137
2.053218	2509.705566
2.053341	2420.759277
2.053463	2460.826660
2.053586	2548.926270
2.053709	2601.600830
2.053831	2568.310547
2.053954	2605.799561
2.054076	2504.289551
2.054199	2526.616943
2.054322	2541.358398
2.054445	2452.537598
2.054567	2656.688965
2.054690	2494.654785
2.054813	2552.308594
2.054936	2519.074951
2.055058	2465.662354
2.055181	2510.675781
2.055304	2520.354004
2.055427	2479.579834
2.055550	2365.679688
2.055673	2488.850098
2.055796	2533.822266
2.055919	2540.967529
2.056042	2444.774658
2.056165	2459.491943
2.056288	2504.438965
2.056411	2423.414307
2.056534	2463.314941
2.056657	2437.726074
2.056780	2414.663574
2.056903	2499.860596
2.057026	2529.653809
2.057149	2499.037354
2.057273	2440.752197
2.057396	2425.255371
2.057519	2530.503174
2.057642	2477.271729
2.057765	2507.038574
2.057889	2363.318115
2.058012	2481.075439
2.058136	2450.506592
2.058259	2427.486572
2.058382	2464.774414
2.058506	2466.880615
2.058629	2456.427490
2.058753	2433.421387
2.058876	2422.977295
2.058999	2450.192871
2.059123	2359.428223
2.059246	2409.231934
2.059370	2358.650879
2.059494	2318.121582
2.059617	2480.784180
2.059741	2515.486816
2.059864	2276.855225
2.059988	2459.500977
2.060112	2361.333496
2.060235	2438.640137
2.060359	2420.697021
2.060483	2525.528320
2.060606	2429.919434
2.060730	2447.051514
2.060854	2436.631348
2.060978	2381.145508
2.061101	2450.848633
2.061225	2447.941895
2.061349	2409.999512
2.061473	2507.187256
2.061597	2311.635986
2.061721	2416.312012
2.061845	2390.904053
2.061969	2398.011719
2.062093	2367.614746
2.062217	2437.216309
2.062341	2366.834229
2.062465	2418.920654
2.062589	2376.047852
2.062713	2328.192871
2.062837	2385.254883
2.062961	2442.298096
2.063085	2514.303467
2.063210	2376.585938
2.063334	2373.697998
2.063458	2400.758057
2.063582	2422.818848
2.063706	2377.513428
2.063831	2384.604492
2.063955	2341.814209
2.064079	2368.856689
2.064204	2433.287354
2.064328	2385.524414
2.064452	2434.977051
2.064577	2290.045654
2.064701	2351.955078
2.064825	2346.584961
2.064950	2376.085693
2.065074	2323.398438
2.065199	2355.383057
2.065324	2464.529053
2.065448	2274.957520
2.065573	2279.559326
2.065697	2289.135986
2.065822	2345.977295
2.065946	2375.438721
2.066071	2253.185791
2.066195	2354.762451
2.066320	2339.457031
2.066445	2296.813721
2.066570	2281.522705
2.066694	2278.661377
2.066819	2310.583740
2.066944	2282.877441
2.067069	2272.565918
2.067194	2282.124023
2.067318	2338.853027
2.067443	2348.396729
2.067568	2335.598877
2.067693	2307.915527
2.067818	2381.971191
2.067943	2329.480957
2.068068	2366.302246
2.068193	2301.431885
2.068318	2308.490723
2.068443	2295.713867
2.068568	2280.462158
2.068693	2242.910400
2.068818	2262.363525
2.068943	2356.136475
2.069068	2217.028320
2.069193	2231.522461
2.069319	2228.677734
2.069444	2357.056396
2.069569	2366.569092
2.069694	2316.676758
2.069819	2259.376709
2.069945	2231.786621
2.070070	2273.473389
2.070195	2295.359131
2.070321	2413.685791
2.070446	2282.237793
2.070571	2309.055176
2.070697	2338.335449
2.070822	2248.978760
2.070948	2312.853027
2.071073	2290.235596
2.071199	2289.857422
2.071324	2262.311523
2.071450	2284.162109
2.071575	2343.039551
2.071701	2288.344482
2.071826	2181.836426
2.071952	2206.153076
2.072078	2198.386719
2.072203	2276.964844
2.072329	2214.925781
2.072454	2189.898682
2.072580	2201.865234
2.072706	2221.223633
2.072832	2223.321533
2.072958	2230.347412
2.073083	2165.913086
2.073209	2187.728027
2.073335	2207.072510
2.073461	2209.170410
2.073587	2162.019043
2.073713	2122.269287
2.073838	2247.461182
2.073964	2156.024658
2.074090	2271.326172
2.074217	2177.455566
2.074342	2209.075439
2.074469	2213.629395
2.074594	2208.344971
2.074721	2225.191406
2.074847	2133.863770
2.074973	2202.333740
2.075099	2174.936523
2.075225	2108.233887
2.075351	2215.981934
2.075477	2173.857666
2.075603	2089.996582
2.075730	2224.704834
2.075856	2131.042480
2.075982	2187.148438
2.076109	2113.157471
2.076235	2132.439209
2.076361	2073.202637
2.076488	2161.170898
2.076614	2131.381104
2.076741	2094.244385
2.076867	2108.609131
2.076993	2054.328125
2.077120	2117.715820
2.077246	2242.348877
2.077373	2134.166992
2.077499	2092.166504
2.077626	2128.561768
2.077753	2059.636719
2.077879	2159.689697
2.078006	2125.057129
2.078132	2161.422852
2.078259	2102.327393
2.078386	2119.108398
2.078512	2094.291748
2.078639	2081.714111
2.078766	2056.911621
2.078892	2137.269043
2.079019	2124.690430
2.079146	2058.335205
2.079273	2048.217773
2.079400	2077.203857
2.079527	2057.313232
2.079654	2108.274658
2.079780	2137.236328
2.079907	2107.576904
2.080034	2121.878418
2.080161	2084.906982
2.080288	2091.884521
2.080415	2135.467773
2.080542	2139.994629
2.080669	2190.874512
2.080796	2170.997070
2.080923	2082.836670
2.081050	2221.487061
2.081177	2128.470947
2.081305	2084.239746
2.081432	2013.212769
2.081559	2073.801758
2.081686	2122.188232
2.081814	2024.393188
2.081941	2024.057861
2.082068	2028.593140
2.082195	2076.954834
2.082323	2013.314331
2.082450	2098.173584
2.082577	1983.443359
2.082705	2095.045166
2.082832	2058.205078
2.082960	2045.701782
2.083087	2013.746094
2.083215	2045.024048
2.083342	2066.566406
2.083470	1983.575073
2.083597	2121.781982
2.083724	2131.150635
2.083852	2074.915771
2.083980	2074.571777
2.084107	2081.514648
2.084235	2137.023682
2.084363	2054.116455
2.084490	2046.493042
2.084618	2089.843994
2.084746	2104.058594
2.084874	2050.328613
2.085001	2093.656982
2.085129	2098.161377
2.085257	2134.191650
2.085385	2007.747559
2.085513	1980.746216
2.085641	1985.265869
2.085768	2067.339600
2.085896	2011.262939
2.086024	1940.668091
2.086152	2020.285767
2.086280	1971.510742
2.086408	2024.458984
2.086536	2053.177734
2.086664	2115.778076
2.086792	2035.554077
2.086920	2037.636597
2.087049	2001.004761
2.087177	2053.895264
2.087305	2036.623047
2.087433	2002.427734
2.087561	1960.989746
2.087689	1943.741455
2.087818	2052.192383
2.087946	2003.516357
2.088074	1950.023560
2.088202	1959.364014
2.088331	1925.220825
2.088459	2052.906250
2.088587	1968.048218
2.088716	1994.279907
2.088844	2076.024414
2.088973	1996.031738
2.089101	1978.808350
2.089230	2041.212280
2.089358	2011.925049
2.089487	1890.992188
2.089615	2001.611084
2.089744	1955.466553
2.089872	1967.195923
2.090001	1962.048706
2.090129	2005.102783
2.090258	2009.589111
2.090387	1883.978271
2.090515	1912.570923
2.090644	1950.787598
2.090773	1986.583496
2.090901	1928.471802
2.091030	1942.594727
2.091159	1988.001099
2.091288	1925.105225
2.091417	1936.815552
2.091546	1934.088379
2.091674	1955.413940
2.091803	1971.922729
2.091932	1887.441895
2.092061	1927.996216
2.092190	1958.922729
2.092319	1924.952881
2.092448	1951.063843
2.092577	1888.277710
2.092706	1825.512451
2.092835	1890.052246
2.092964	1928.157471
2.093093	1894.226074
2.093223	1929.917480
2.093352	1869.596924
2.093481	1919.677979
2.093610	1936.153564
2.093739	1868.665527
2.093868	1969.088013
2.093998	1916.004761
2.094127	1872.529663
2.094256	1891.396240
2.094386	1898.272339
2.094515	1859.614502
2.094645	1773.049072
2.094774	1851.809692
2.094903	1880.244629
2.095033	1908.670044
2.095162	1882.014282
2.095292	1852.973267
2.095421	1946.016724
2.095551	1914.581299
2.095680	1950.155640
2.095810	1887.628296
2.095939	1834.689819
2.096069	1889.392578
2.096198	1826.906250
2.096328	1915.063721
2.096458	1835.860840
2.096588	1923.987305
2.096717	1883.043457
2.096847	1892.287476
2.096977	1875.250854
2.097106	1915.542969
2.097236	1807.761719
2.097366	1900.580078
2.097496	1835.807861
2.097626	1856.984497
2.097756	1799.400391
2.097886	1794.328979
2.098016	1841.744263
2.098145	1800.888184
2.098275	1788.664185
2.098405	1876.592896
2.098536	1828.598999
2.098665	1864.050293
2.098796	1835.140625
2.098926	1832.452515
2.099056	1803.557617
2.099186	1765.143921
2.099316	1869.645752
2.099446	1909.817139
2.099576	1728.549316
2.099707	1809.199707
