#Wave		#Intensity
1.699584	306.063477
1.699649	425.619507
1.699714	435.108704
1.699779	401.569305
1.699844	387.160553
1.699908	391.872498
1.699973	391.804718
1.700038	382.182373
1.700103	415.551453
1.700168	458.460236
1.700233	458.380951
1.700298	348.500244
1.700363	424.810364
1.700428	367.469025
1.700493	467.606995
1.700558	410.278046
1.700623	438.826233
1.700688	395.829163
1.700753	476.820160
1.700818	471.970398
1.700883	452.822601
1.700948	395.555603
1.701013	357.368011
1.701078	371.598511
1.701143	419.166901
1.701208	442.906677
1.701273	452.353424
1.701338	490.361633
1.701403	490.276947
1.701468	356.936127
1.701534	475.832642
1.701599	437.690430
1.701664	371.021301
1.701729	418.515869
1.701794	399.423462
1.701859	404.108704
1.701925	475.339966
1.701990	408.721802
1.702055	408.651276
1.702120	403.829803
1.702186	365.759155
1.702251	451.183441
1.702316	413.117767
1.702381	451.027771
1.702447	436.709442
1.702512	507.824463
1.702577	412.832764
1.702643	389.039642
1.702708	483.843903
1.702773	488.503204
1.702839	407.806152
1.702904	421.959167
1.702969	455.068481
1.703035	436.032135
1.703100	350.661041
1.703166	464.308868
1.703231	393.173431
1.703297	502.038544
1.703362	506.687408
1.703427	378.766449
1.703493	463.908936
1.703558	473.294891
1.703624	577.320313
1.703689	449.475250
1.703755	501.433350
1.703820	463.509460
1.703886	463.429626
1.703952	463.349823
1.704017	515.269714
1.704083	444.284515
1.704148	430.031158
1.704214	425.232330
1.704280	481.846985
1.704345	462.871338
1.704411	401.400909
1.704476	448.547333
1.704542	505.118988
1.704608	467.272644
1.704674	410.562866
1.704739	481.266754
1.704805	410.421600
1.704871	457.517761
1.704936	528.177063
1.705002	414.924835
1.705068	527.995300
1.705134	560.898560
1.705199	471.262238
1.705265	457.045746
1.705331	546.476196
1.705397	527.541443
1.705463	475.647522
1.705528	489.691467
1.705594	517.853882
1.705660	395.384033
1.705726	527.088135
1.705792	531.702820
1.705858	555.134094
1.705924	493.890350
1.705989	559.646179
1.706056	545.443726
1.706121	427.817657
1.706187	507.652405
1.706253	413.571655
1.706319	521.574585
1.706385	516.786926
1.706451	422.753052
1.706517	502.520081
1.706583	455.477356
1.706649	450.704285
1.706715	492.873169
1.706781	478.708862
1.706847	473.934235
1.706913	544.227051
1.706980	483.153137
1.707046	529.970215
1.707112	412.649323
1.707178	487.592773
1.707244	539.072571
1.707310	487.425415
1.707376	534.201538
1.707443	524.739563
1.707509	449.699585
1.707575	552.660889
1.707641	440.179749
1.707707	435.422302
1.707773	482.159180
1.707840	463.355042
1.707906	510.071106
1.707972	505.304871
1.708038	467.794647
1.708105	523.840149
1.708171	561.161072
1.708237	537.687134
1.708303	537.594971
1.708370	490.763428
1.708436	574.795776
1.708503	556.007874
1.708569	513.868774
1.708635	541.805115
1.708702	481.003143
1.708768	532.281189
1.708834	499.511627
1.708901	560.104004
1.708967	536.674377
1.709034	550.580200
1.709100	527.160217
1.709167	471.097900
1.709233	503.661957
1.709299	512.901184
1.709366	498.827515
1.709432	582.642639
1.709499	535.939453
1.709566	545.166748
1.709632	521.779663
1.709699	596.217529
1.709765	596.115479
1.709832	502.886353
1.709898	479.522461
1.709965	567.880859
1.710032	525.898010
1.710098	474.623138
1.710165	474.541931
1.710231	572.143799
1.710298	576.696716
1.710365	562.648071
1.710431	585.797791
1.710498	543.862000
1.710565	543.768982
1.710631	506.501556
1.710698	492.476898
1.710765	510.973541
1.710832	510.886139
1.710898	603.671326
1.710965	529.282776
1.711032	538.476379
1.711099	505.895599
1.711165	501.168640
1.711232	519.641602
1.711299	542.747131
1.711366	598.311218
1.711433	598.208923
1.711500	561.014832
1.711566	584.097412
1.711633	519.109009
1.711700	551.459045
1.711767	579.164734
1.711834	509.577911
1.711901	537.281250
1.711968	518.665710
1.712035	652.851563
1.712102	564.782166
1.712169	689.657166
1.712236	675.656006
1.712303	559.865906
1.712370	499.629669
1.712437	490.293549
1.712504	587.326904
1.712571	517.869141
1.712638	513.157715
1.712705	619.381897
1.712772	614.654724
1.712839	540.619019
1.712906	554.386414
1.712973	563.530029
1.713040	563.433838
1.713107	535.632568
1.713175	646.342834
1.713242	544.681702
1.713309	539.973633
1.713376	572.182129
1.713443	567.470947
1.713511	599.663696
1.713578	604.173462
1.713645	525.679626
1.713712	636.240479
1.713779	566.987183
1.713847	649.850098
1.713914	617.482727
1.713981	589.733704
1.714048	543.568054
1.714116	580.321228
1.714183	658.506226
1.714250	639.977417
1.714318	607.644714
1.714385	570.720520
1.714453	612.039429
1.714520	565.924988
1.714587	556.628113
1.714655	570.331604
1.714722	584.030457
1.714789	634.507629
1.714857	560.845947
1.714924	625.098877
1.714992	629.587891
1.715059	666.238647
1.715127	702.876953
1.715194	587.927612
1.715262	606.197144
1.715329	550.994446
1.715397	674.853271
1.715464	651.788086
1.715532	624.141479
1.715599	610.269775
1.715667	596.402771
1.715734	605.475098
1.715802	591.613586
1.715870	655.708130
1.715937	614.335205
1.716005	637.149719
1.716073	540.797668
1.716140	618.603882
1.716208	613.917175
1.716275	691.684509
1.716343	622.868164
1.716411	705.186584
1.716478	659.283081
1.716546	595.084900
1.716614	585.830078
1.716682	599.458557
1.716749	603.931824
1.716817	585.531311
1.716885	663.184387
1.716953	708.800720
1.717021	672.103149
1.717088	667.417542
1.717156	662.733521
1.717224	612.353088
1.717292	607.679993
1.717360	680.668640
1.717427	589.203552
1.717495	570.836670
1.717563	634.662537
1.717631	684.771240
1.717699	648.139954
1.717767	593.266785
1.717835	570.351929
1.717903	720.802307
1.717971	665.944702
1.718039	734.238953
1.718107	647.479675
1.718175	665.605469
1.718243	642.701599
1.718311	701.838562
1.718379	697.162781
1.718447	678.820984
1.718515	583.049255
1.718583	705.916321
1.718651	687.582397
1.718719	632.832642
1.718787	646.381165
1.718855	700.885925
1.718923	664.363525
1.718992	696.098389
1.719060	741.469177
1.719128	613.996033
1.719196	695.744080
1.719264	613.787720
1.719332	700.053833
1.719401	681.754944
1.719469	708.904907
1.719537	681.523682
1.719605	717.749878
1.719674	772.131531
1.719742	708.424072
1.719810	676.521057
1.719878	658.247742
1.719947	744.374695
1.720015	707.943665
1.720083	744.122253
1.720152	784.825195
1.720220	680.368896
1.720288	698.393677
1.720357	689.206787
1.720425	743.491821
1.720493	698.038574
1.720562	697.920288
1.720630	747.645020
1.720699	684.092529
1.720767	683.976624
1.720835	656.687439
1.720904	787.891418
1.720972	629.300903
1.721041	751.411865
1.721109	719.603943
1.721178	746.632324
1.721246	656.020264
1.721315	759.949951
1.721383	710.071045
1.721452	705.428833
1.721520	691.745728
1.721589	741.353516
1.721658	619.196594
1.721726	704.951172
1.721795	772.604126
1.721864	740.851624
1.721932	799.442322
1.722001	713.505676
1.722069	708.869812
1.722138	699.721191
1.722207	686.062073
1.722275	785.227661
1.722344	726.438232
1.722413	793.984497
1.722481	681.087341
1.722550	721.559814
1.722619	807.108521
1.722688	788.939087
1.722756	743.731018
1.722825	788.672180
1.722894	752.491333
1.722963	770.384766
1.723032	761.245667
1.723101	747.605957
1.723169	769.993958
1.723238	810.382935
1.723307	711.215881
1.723376	760.602295
1.723445	863.970093
1.723514	809.835022
1.723583	737.724976
1.723651	836.546692
1.723720	822.914856
1.723789	845.255981
1.723858	791.169739
1.723927	795.530579
1.723996	719.002197
1.724065	745.838684
1.724134	759.189453
1.724203	839.907898
1.724272	749.951477
1.724341	853.094055
1.724410	754.187317
1.724479	812.409790
1.724549	798.809509
1.724618	825.596191
1.724687	803.025879
1.724756	825.317383
1.724825	829.662659
1.724894	753.296204
1.724963	806.966797
1.725032	779.936218
1.725101	847.029053
1.725171	802.077271
1.725240	752.660522
1.725309	801.806519
1.725378	846.457275
1.725447	814.969421
1.725517	756.629639
1.725586	854.981445
1.725655	823.508057
1.725724	760.721436
1.725794	796.385742
1.725863	858.877869
1.725932	814.007263
1.726002	746.792786
1.726071	876.327515
1.726140	804.654785
1.726210	826.866821
1.726279	831.196167
1.726348	875.736389
1.726418	835.383118
1.726487	808.442993
1.726557	736.854187
1.726626	897.471008
1.726696	848.212646
1.726765	874.850769
1.726834	870.240479
1.726904	771.929382
1.726973	794.105591
1.727043	860.879456
1.727112	856.274597
1.727182	811.540161
1.727251	842.611206
1.727321	904.874329
1.727390	842.327209
1.727460	860.009338
1.727530	873.230164
1.727599	855.265015
1.727669	877.389709
1.727738	863.882874
1.727808	859.285095
1.727878	819.076843
1.727947	756.628296
1.728017	792.100891
1.728087	858.706299
1.728156	880.804260
1.728226	853.969360
1.728296	902.742676
1.728365	849.235535
1.728435	764.627808
1.728505	817.836243
1.728575	911.022827
1.728644	799.787842
1.728714	866.290955
1.728784	928.329895
1.728854	799.384033
1.728923	936.898010
1.728993	887.905518
1.729063	945.460205
1.729133	878.730591
1.729203	896.331909
1.729273	829.632996
1.729343	913.773438
1.729412	926.924866
1.729482	869.122986
1.729552	913.312317
1.729622	868.830627
1.729692	873.116516
1.729762	793.205933
1.729832	939.281433
1.729902	894.825195
1.729972	863.671143
1.730042	1009.661011
1.730112	876.663452
1.730182	872.089172
1.730252	942.760254
1.730322	902.773499
1.730392	924.744812
1.730462	924.589355
1.730532	928.857056
1.730602	972.924744
1.730672	871.063477
1.730743	928.388733
1.730813	906.131958
1.730883	923.657288
1.730953	941.176758
1.731023	896.839355
1.731093	901.105835
1.731164	927.453064
1.731234	993.532776
1.731304	944.801270
1.731374	962.299438
1.731444	926.829956
1.731515	886.959656
1.731585	935.342651
1.731655	917.540527
1.731725	908.565369
1.731796	833.446716
1.731866	974.395691
1.731936	943.374084
1.732007	934.400574
1.732077	965.091309
1.732147	920.868591
1.732218	916.308655
1.732288	902.941040
1.732358	1017.289612
1.732429	871.816162
1.732499	1016.948120
1.732570	955.154541
1.732640	972.597839
1.732710	924.032898
1.732781	915.078979
1.732851	857.742554
1.732922	1002.730713
1.732992	980.576477
1.733063	958.429626
1.733133	923.102966
1.733204	958.108032
1.733274	1006.284119
1.733345	878.703308
1.733416	966.411499
1.733486	1049.698242
1.733557	974.869995
1.733627	1097.642456
1.733698	1062.339722
1.733769	965.601379
1.733839	974.216187
1.733910	965.277588
1.733980	1061.627319
1.734051	1087.766235
1.734122	986.719238
1.734193	1052.324097
1.734263	1030.227905
1.734334	981.839905
1.734405	1038.647583
1.734475	933.311584
1.734546	998.870300
1.734617	937.379028
1.734688	1037.951416
1.734758	1068.429077
1.734829	945.664001
1.734900	1072.448486
1.734971	932.217346
1.735042	1045.833862
1.735113	1050.033813
1.735183	1150.469238
1.735254	1049.682007
1.735325	1018.895569
1.735396	1075.563599
1.735467	970.468018
1.735538	1062.091187
1.735609	1022.583191
1.735680	1035.519775
1.735751	991.660889
1.735822	1057.012085
1.735893	960.759155
1.735964	1026.093628
1.736035	1052.115601
1.736106	1091.223511
1.736177	1025.578369
1.736248	1021.043274
1.736319	1090.675659
1.736390	968.357849
1.736461	1064.143066
1.736532	1050.883423
1.736603	1037.628174
1.736674	1046.172729
1.736745	1037.281006
1.736817	1137.332031
1.736888	1080.502563
1.736959	1084.677856
1.737030	1088.851807
1.737101	1110.443115
1.737172	1066.717773
1.737244	1023.007141
1.737315	1144.705811
1.737386	1153.217896
1.737457	1096.461548
1.737528	1096.278198
1.737600	1148.289795
1.737671	1100.260376
1.737742	1173.994507
1.737814	1143.366455
1.737885	1143.175293
1.737956	1203.827393
1.738028	1038.507690
1.738099	1094.812500
1.738170	1142.411011
1.738242	1129.190918
1.738313	1115.975220
1.738384	1098.422241
1.738456	1163.351685
1.738527	950.490417
1.738599	1158.623413
1.738670	1062.978638
1.738742	1149.560303
1.738813	1153.705444
1.738885	1097.137939
1.738956	1148.984131
1.739028	1218.153198
1.739099	1196.277954
1.739171	1148.408325
1.739242	1031.228394
1.739314	1100.370850
1.739385	1126.175781
1.739457	1255.909302
1.739528	1234.049561
1.739600	1203.538452
1.739672	1129.752075
1.739743	1250.742676
1.739815	1133.701904
1.739887	1172.450073
1.739958	1085.741089
1.740030	1120.159302
1.740101	1128.620728
1.740173	1188.961304
1.740245	1223.344971
1.740317	1162.632080
1.740388	1171.080688
1.740460	1162.244019
1.740532	1162.049927
1.740604	1235.281860
1.740675	1209.165039
1.740747	1183.056885
1.740819	1295.101685
1.740891	1299.201782
1.740963	1156.571411
1.741034	1212.471436
1.741106	1173.442017
1.741178	1220.693726
1.741250	1267.929565
1.741322	1151.294922
1.741394	1271.817871
1.741466	1198.326782
1.741538	1236.915161
1.741610	1236.708862
1.741681	1322.670044
1.741753	1210.450439
1.741825	1244.704102
1.741897	1197.128174
1.741969	1257.205444
1.742041	1248.386353
1.742113	1226.657837
1.742185	1252.273438
1.742257	1333.814575
1.742329	1312.082642
1.742401	1187.129395
1.742474	1272.940918
1.742546	1246.930298
1.742618	1302.609985
1.742690	1246.514648
1.742762	1220.521240
1.742834	1276.177490
1.742906	1271.668579
1.742978	1172.661011
1.743051	1249.771118
1.743123	1240.974854
1.743195	1219.301514
1.743267	1167.587158
1.743340	1257.522217
1.743412	1231.565674
1.743484	1227.070068
1.743556	1256.893799
1.743629	1252.395508
1.743701	1230.745361
1.743773	1354.880615
1.743845	1277.491089
1.743918	1272.992188
1.743990	1221.354736
1.744062	1353.978394
1.744135	1358.036865
1.744207	1259.294556
1.744280	1211.976318
1.744352	1340.231201
1.744424	1241.541016
1.744497	1275.578003
1.744569	1322.442871
1.744642	1356.455078
1.744714	1304.889404
1.744786	1313.227417
1.744859	1231.747681
1.744931	1274.304688
1.745004	1316.847290
1.745076	1346.551636
1.745149	1384.793945
1.745221	1405.930298
1.745294	1243.336304
1.745367	1349.927490
1.745439	1324.075684
1.745512	1315.314331
1.745584	1289.476807
1.745657	1383.182007
1.745729	1310.389648
1.745802	1361.383667
1.745875	1327.021606
1.745947	1254.274780
1.746020	1360.704468
1.746093	1300.770630
1.746166	1373.044189
1.746238	1330.181885
1.746311	1308.647217
1.746384	1380.883423
1.746456	1512.753418
1.746529	1478.417358
1.746602	1418.533447
1.746675	1379.965332
1.746747	1366.960571
1.746820	1366.733276
1.746893	1409.076416
1.746966	1434.380127
1.747039	1417.119263
1.747112	1331.785645
1.747184	1403.885620
1.747257	1463.201172
1.747330	1467.210815
1.747403	1475.471191
1.747476	1436.963623
1.747549	1364.463623
1.747622	1398.236572
1.747695	1448.995239
1.747768	1393.523438
1.747841	1380.548462
1.747914	1503.485962
1.747987	1397.075562
1.748060	1214.277344
1.748133	1464.531738
1.748206	1493.998657
1.748279	1506.481445
1.748352	1455.316406
1.748425	1472.043457
1.748498	1408.176636
1.748571	1395.220337
1.748644	1458.589966
1.748717	1449.869019
1.748791	1475.060425
1.748864	1491.767456
1.748937	1474.570679
1.749010	1533.637817
1.749083	1575.741821
1.749156	1401.838623
1.749229	1452.419434
1.749303	1375.970825
1.749376	1477.335693
1.749449	1565.969849
1.749522	1582.636597
1.749596	1442.752686
1.749669	1484.815674
1.749742	1433.814819
1.749816	1505.467163
1.749889	1526.358154
1.749962	1437.328613
1.750035	1496.264526
1.750109	1491.790283
1.750182	1432.388062
1.750256	1563.114014
1.750329	1495.271851
1.750402	1545.702637
1.750476	1498.998413
1.750549	1587.408203
1.750623	1477.395508
1.750696	1586.881714
1.750769	1493.784424
1.750843	1544.165161
1.750916	1489.070801
1.750990	1539.435425
1.751063	1505.444702
1.751137	1433.519165
1.751211	1496.514526
1.751284	1584.777954
1.751358	1521.303101
1.751431	1504.197144
1.751505	1402.842041
1.751578	1575.303223
1.751652	1490.815308
1.751725	1701.100342
1.751799	1528.210571
1.751873	1519.538818
1.751946	1523.495605
1.752020	1552.698120
1.752094	1623.962402
1.752167	1644.725586
1.752241	1631.835815
1.752315	1682.026245
1.752389	1601.864502
1.752462	1597.395508
1.752536	1550.898071
1.752610	1563.248047
1.752684	1596.601685
1.752757	1613.140747
1.752831	1600.272949
1.752905	1654.601318
1.752979	1633.333374
1.753053	1675.043823
1.753127	1561.436401
1.753200	1573.767944
1.753274	1619.663574
1.753348	1661.348633
1.753422	1740.771484
1.753496	1618.859131
1.753570	1606.011353
1.753644	1706.366577
1.753718	1609.671387
1.753792	1575.875610
1.753866	1667.805054
1.753940	1617.251709
1.754014	1721.710938
1.754088	1704.672363
1.754162	1637.387207
1.754236	1708.295166
1.754310	1703.826050
1.754384	1670.059204
1.754458	1778.590698
1.754532	1715.532959
1.754606	1589.743042
1.754680	1681.502563
1.754754	1639.402832
1.754828	1735.305054
1.754902	1693.210327
1.754977	1722.190674
1.755051	1763.699585
1.755125	1750.871826
1.755199	1729.692139
1.755273	1641.682495
1.755347	1679.000488
1.755422	1645.315430
1.755496	1853.805054
1.755570	1732.436646
1.755645	1790.584106
1.755719	1752.729492
1.755793	1723.232300
1.755867	1714.603760
1.755942	1810.255493
1.756016	1714.036743
1.756090	1751.280884
1.756165	1705.131958
1.756239	1608.978271
1.756314	1808.759399
1.756388	1716.787354
1.756462	1774.831299
1.756537	1787.034668
1.756611	1790.904175
1.756685	1828.085938
1.756760	1777.821655
1.756834	1744.225220
1.756909	1868.801147
1.756983	1785.263184
1.757058	1768.325073
1.757132	1788.833252
1.757207	1801.015869
1.757281	1738.337769
1.757356	1588.361938
1.757431	1771.021973
1.757505	1700.066406
1.757580	1890.959473
1.757654	1795.075928
1.757729	1803.088501
1.757804	1869.253052
1.757878	1736.041504
1.757953	1835.415283
1.758028	1822.656616
1.758102	1780.844116
1.758177	1851.107910
1.758252	1942.097412
1.758326	1854.645630
1.758401	1966.346436
1.758476	1833.294556
1.758550	1808.109497
1.758625	1840.981812
1.758700	1865.551880
1.758775	1906.693726
1.758850	1947.821899
1.758924	1827.335449
1.758999	1822.890869
1.759074	1963.426392
1.759149	1826.430664
1.759224	1879.960571
1.759298	1772.005127
1.759373	1883.479614
1.759448	1920.418213
1.759523	1944.930176
1.759598	1932.196777
1.759673	1886.373291
1.759748	1886.061890
1.759823	2034.625732
1.759898	1885.439575
1.759973	1818.983521
1.760048	1930.284424
1.760123	1925.833252
1.760198	1975.099609
1.760273	1900.409912
1.760348	2028.146362
1.760423	1961.732422
1.760498	1924.245239
1.760573	1911.541992
1.760648	2096.983154
1.760723	2059.492188
1.760798	2034.393066
1.760874	1996.924683
1.760949	2083.224365
1.761024	1946.771851
1.761099	1938.203125
1.761174	1921.390869
1.761249	1916.951538
1.761325	1937.244385
1.761400	1916.319458
1.761475	1850.076416
1.761550	1969.244385
1.761626	1960.681641
1.761701	2063.318359
1.761776	2009.447876
1.761851	2009.116577
1.761927	2021.134521
1.762002	2049.611084
1.762077	1892.903076
1.762153	1995.449219
1.762228	2073.279785
1.762303	2044.147217
1.762379	2047.922607
1.762454	2072.254883
1.762529	2063.691406
1.762605	2166.107910
1.762680	2063.011475
1.762756	2153.067383
1.762831	2095.197510
1.762907	2115.389893
1.762982	2156.110107
1.763058	2077.737305
1.763133	2056.867188
1.763209	2023.689697
1.763284	2125.960693
1.763360	2142.024414
1.763435	2076.026367
1.763511	1993.641602
1.763586	2145.067627
1.763662	2103.706299
1.763738	2017.257446
1.763813	2094.814453
1.763889	2045.284424
1.763964	2114.615234
1.764040	2061.000488
1.764116	2011.500244
1.764191	2088.994385
1.764267	2121.413574
1.764343	2174.295410
1.764419	2055.210205
1.764494	2103.992432
1.764570	2201.870605
1.764646	2074.655518
1.764722	2291.155518
1.764797	2278.506348
1.764873	2229.051270
1.764949	2220.505615
1.765025	2171.076416
1.765100	2129.839111
1.765176	2149.925293
1.765252	2251.737305
1.765328	2230.937012
1.765404	2173.375732
1.765480	2295.556641
1.765556	2188.996338
1.765632	2155.969971
1.765708	2249.514893
1.765783	2212.407471
1.765859	2134.499512
1.765935	2187.196045
1.766011	2321.473389
1.766087	2215.031250
1.766163	2222.823975
1.766239	2193.912842
1.766315	2266.942383
1.766391	2189.114746
1.766467	2188.754639
1.766544	2278.049561
1.766620	2265.451172
1.766696	2199.896484
1.766772	2264.706055
1.766848	2195.100586
1.766924	2215.098877
1.767000	2157.737793
1.767076	2312.063232
1.767152	2319.822754
1.767229	2213.642334
1.767305	2201.072754
1.767381	2330.882324
1.767457	2350.834961
1.767533	2199.987305
1.767610	2345.996338
1.767686	2374.066895
1.767762	2328.967041
1.767838	2324.520264
1.767915	2397.275391
1.767991	2307.506348
1.768067	2319.312500
1.768144	2424.521973
1.768220	2411.941895
1.768296	2330.348633
1.768373	2382.735107
1.768449	2256.529785
1.768525	2321.084473
1.768602	2336.931641
1.768678	2340.604248
1.768755	2437.559814
1.768831	2319.559326
1.768908	2481.358398
1.768984	2395.820068
1.769060	2383.267090
1.769137	2378.822998
1.769214	2439.209717
1.769290	2418.553223
1.769367	2300.691162
1.769443	2458.257324
1.769520	2522.640381
1.769596	2437.207275
1.769673	2363.945557
1.769749	2501.161621
1.769826	2423.866943
1.769903	2427.514893
1.769979	2503.974854
1.770056	2564.231689
1.770132	2523.371826
1.770209	2543.173584
1.770286	2445.735107
1.770362	2348.328613
1.770439	2545.962402
1.770516	2573.828125
1.770593	2391.610840
1.770669	2459.885010
1.770746	2479.674072
1.770823	2519.645752
1.770900	2519.232178
1.770976	2522.855225
1.771053	2526.477051
1.771130	2445.357666
1.771207	2574.062744
1.771284	2480.860107
1.771361	2440.120605
1.771437	2548.600098
1.771514	2511.894531
1.771591	2644.514160
1.771668	2486.886475
1.771745	2542.897705
1.771822	2602.919678
1.771899	2493.719727
1.771976	2505.394531
1.772053	2529.147217
1.772130	2573.025391
1.772207	2620.915039
1.772284	2588.282471
1.772361	2688.474609
1.772438	2623.649414
1.772515	2498.495605
1.772592	2570.493896
1.772669	2618.336670
1.772746	2678.227539
1.772823	2545.105225
1.772900	2649.208740
1.772977	2471.921387
1.773054	2676.470947
1.773132	2607.725098
1.773209	2715.767334
1.773286	2647.037354
1.773363	2606.442383
1.773440	2658.215576
1.773517	2677.853516
1.773595	2709.527588
1.773672	2785.338867
1.773749	2684.562256
1.773826	2668.073730
1.773904	2603.452393
1.773981	2767.469482
1.774058	2634.680420
1.774136	2622.219971
1.774213	2713.993652
1.774290	2813.753906
1.774368	2717.111572
1.774445	2740.707520
1.774522	2624.077881
1.774600	2663.703613
1.774677	2699.311279
1.774755	2662.830566
1.774832	2802.520264
1.774909	2629.934326
1.774987	2653.517090
1.775064	2761.126465
1.775142	2632.642822
1.775219	2828.227051
1.775297	2691.775146
1.775374	2803.306396
1.775452	2798.848633
1.775529	2818.378662
1.775607	2793.934814
1.775684	2913.368652
1.775762	2809.002441
1.775840	2760.601318
1.775917	2907.942871
1.775995	2847.560059
1.776072	2966.887207
1.776150	2838.642334
1.776228	2906.038086
1.776305	2841.703857
1.776383	2765.418701
1.776461	2804.864502
1.776538	2999.875732
1.776616	2847.819824
1.776694	2815.450439
1.776772	2882.772461
1.776849	3069.669922
1.776927	2814.067627
1.777005	2837.518555
1.777083	2992.454346
1.777161	2876.429199
1.777238	2959.608154
1.777316	2939.210205
1.777394	2898.908936
1.777472	2982.042969
1.777550	3085.053467
1.777628	2945.246338
1.777706	3044.249512
1.777783	3051.708740
1.777861	2900.041016
1.777939	2967.183350
1.778017	2843.416748
1.778095	2938.379150
1.778173	2949.824707
1.778251	2981.140869
1.778329	2972.704590
1.778407	3055.662842
1.778485	3059.135742
1.778563	2959.328613
1.778641	2982.674072
1.778719	3081.459961
1.778797	3069.044922
1.778875	3008.998047
1.778953	3024.381592
1.779032	3047.697021
1.779110	2987.682861
1.779188	3018.930664
1.779266	3137.428955
1.779344	3164.676025
1.779422	2977.798340
1.779500	3112.102783
1.779579	3175.014893
1.779657	3087.305908
1.779735	3019.438232
1.779813	3129.876709
1.779892	3073.907715
1.779970	3033.799316
1.780048	3132.301270
1.780126	3151.585449
1.780205	3190.656494
1.780283	3154.512939
1.780361	3260.845215
1.780440	3050.607422
1.780518	3208.350342
1.780596	3211.781250
1.780675	3215.210938
1.780753	3183.052490
1.780832	3059.974854
1.780910	3114.813965
1.780988	3157.778564
1.781067	3173.068359
1.781145	3057.974609
1.781224	3172.031250
1.781302	3309.748047
1.781381	3170.994385
1.781459	3142.838135
1.781538	3256.805908
1.781616	3189.174805
1.781695	3263.634277
1.781773	3290.720947
1.781852	3207.336670
1.781931	3234.423584
1.782009	3210.232422
1.782088	3355.603516
1.782166	3303.802979
1.782245	3200.775391
1.782324	3290.899902
1.782402	3294.302734
1.782481	3368.622803
1.782560	3438.979248
1.782638	3225.731689
1.782717	3331.530273
1.782796	3267.988525
1.782875	3306.821533
1.782953	3200.008057
1.783032	3301.805908
1.783111	3320.940430
1.783190	3344.002686
1.783268	3331.656006
1.783347	3299.649170
1.783426	3318.771240
1.783505	3353.613281
1.783584	3443.476563
1.783663	3438.983887
1.783742	3355.900146
1.783820	3563.588135
1.783899	3429.442627
1.783978	3424.954834
1.784057	3553.988770
1.784136	3431.689453
1.784215	3380.093994
1.784294	3489.445801
1.784373	3630.157959
1.784452	3464.763428
1.784531	3346.501465
1.784610	3361.645264
1.784689	3443.457031
1.784768	3603.667969
1.784847	3399.205811
1.784926	3386.890869
1.785005	3398.096191
1.785084	3581.721924
1.785164	3455.758301
1.785243	3557.048096
1.785322	3517.299316
1.785401	3465.814941
1.785480	3484.827148
1.785559	3464.683838
1.785638	3389.747559
1.785718	3647.493164
1.785797	3556.899414
1.785876	3618.916504
1.785955	3544.003662
1.786035	3676.401611
1.786114	3484.190674
1.786193	3667.382324
1.786273	3643.329102
1.786352	3728.721924
1.786431	3610.877197
1.786510	3649.360596
1.786590	3574.539795
1.786669	3921.587402
1.786748	3612.427002
1.786828	3498.601563
1.786907	3591.728271
1.786987	3641.886719
1.787066	3590.556641
1.787146	3601.677246
1.787225	3640.104980
1.787304	3592.700684
1.787384	3631.117188
1.787463	3669.520996
1.787543	3688.417236
1.787622	3598.154297
1.787702	3671.623535
1.787781	3752.863037
1.787861	3736.665283
1.787941	3490.621582
1.788020	3669.229248
1.788100	3816.622314
1.788179	3699.183838
1.788259	3683.007568
1.788339	3760.259277
1.788418	3693.482666
1.788498	3766.815918
1.788578	3855.687988
1.788657	3687.786377
1.788737	3691.074707
1.788817	3846.025146
1.788896	3798.740234
1.788976	3809.783447
1.789056	3902.447998
1.789136	3820.200439
1.789215	3726.322510
1.789295	3869.460205
1.789375	3779.489014
1.789455	3903.152588
1.789535	3782.140381
1.789614	3773.759033
1.789694	3870.189941
1.789774	3749.241943
1.789854	3837.884033
1.789934	3779.059570
1.790014	3751.288574
1.790094	3839.886719
1.790174	3862.529297
1.790254	3842.512939
1.790334	3934.929443
1.790413	3748.233398
1.790493	4022.784180
1.790573	3867.133545
1.790653	3889.749023
1.790734	3904.609863
1.790814	3729.689209
1.790894	3961.423096
1.790974	3937.547363
1.791054	3778.190918
1.791134	3897.560059
1.791214	3920.144043
1.791294	3962.066895
1.791374	3810.547119
1.791454	3871.813477
1.791534	4083.885254
1.791615	3967.219727
1.791695	3920.180908
1.791775	3931.138672
1.791855	3942.092773
1.791935	3995.549316
1.792016	4014.216309
1.792096	3967.207764
1.792176	3978.148438
1.792256	4224.646484
1.792337	4096.544922
1.792417	4080.436035
1.792497	4118.369629
1.792578	4013.502197
1.792658	3978.122070
1.792738	4097.068848
1.792819	4115.687988
1.792899	3968.466309
1.792979	4106.636230
1.793060	4171.508789
1.793140	4201.667480
1.793221	3962.028564
1.793301	4188.739258
1.793381	3906.798828
1.793462	4218.193848
1.793542	4055.739746
1.793623	4082.036377
1.793703	4327.794434
1.793784	4096.106445
1.793864	4068.496338
1.793945	4002.410156
1.794026	4236.477539
1.794106	4154.996094
1.794187	4212.019043
1.794267	4111.338379
1.794348	4341.389648
1.794428	4090.776855
1.794509	4124.708008
1.794590	4108.663086
1.794670	4181.008301
1.794751	4380.123047
1.794832	4187.331055
1.794912	4194.332031
1.794993	4159.086426
1.795074	4231.364258
1.795155	4184.606934
1.795235	4287.564453
1.795316	4229.299316
1.795397	4297.681152
1.795478	4197.230957
1.795559	4342.314941
1.795639	4199.700684
1.795720	4367.745605
1.795801	4282.685059
1.795882	4151.650391
1.795963	4354.115723
1.796044	4303.588867
1.796125	4172.614258
1.796205	4290.696289
1.796286	4144.444824
1.796367	4362.065430
1.796448	4326.894043
1.796529	4215.164551
1.796610	4248.929688
1.796691	4451.082520
1.796772	4412.092773
1.796853	4411.375000
1.796934	4406.832520
1.797015	4295.198242
1.797096	4313.620605
1.797177	4484.977051
1.797258	4361.915527
1.797340	4284.760742
1.797421	4459.859863
1.797502	4478.240234
1.797583	4420.206055
1.797664	4278.155273
1.797745	4521.886230
1.797826	4608.977539
1.797908	4489.873047
1.797989	4512.046875
1.798070	4488.413574
1.798151	4415.178711
1.798232	4555.632324
1.798314	4329.817383
1.798395	4466.424805
1.798476	4519.088867
1.798558	4453.534180
1.798639	4582.430176
1.798720	4528.321289
1.798802	4539.018555
1.798883	4523.039063
1.798964	4495.635254
1.799046	4525.378418
1.799127	4673.179199
1.799208	4577.219727
1.799290	4618.357422
1.799371	4484.370117
1.799453	4769.102539
1.799534	4570.439941
1.799616	4649.600586
1.799697	4587.976563
1.799778	4408.458496
1.799860	4616.910156
1.799942	4475.470215
1.800023	4623.014160
1.800105	4629.865234
1.800186	4583.506348
1.800268	4461.162598
1.800349	4597.214355
1.800431	4607.864258
1.800513	4618.509766
1.800594	4655.734863
1.800676	4628.400391
1.800757	4661.814941
1.800839	4680.036133
1.800921	4755.176758
1.801003	4792.348633
1.801084	4711.900391
1.801166	4616.305176
1.801248	4786.221191
1.801329	4645.141602
1.801411	4553.395508
1.801493	4764.936035
1.801575	4881.655762
1.801656	4733.072754
1.801738	4762.615234
1.801820	4549.699707
1.801902	4639.864258
1.801984	4794.378906
1.802066	4695.153809
1.802148	4705.749023
1.802229	4670.918457
1.802311	4738.282227
1.802393	4779.136230
1.802475	4770.793945
1.802557	4962.938477
1.802639	4810.848145
1.802721	4734.437012
1.802803	4775.258301
1.802885	4899.231934
1.802967	4709.454102
1.803049	4750.258789
1.803131	4760.823242
1.803213	4797.828613
1.803295	4763.055176
1.803377	4928.452148
1.803459	4991.843750
1.803541	4840.019043
1.803623	4982.673828
1.803706	4838.447754
1.803788	4943.321289
1.803870	4851.969238
1.803952	4945.489258
1.804034	4839.079590
1.804116	4830.751953
1.804199	4961.934570
1.804281	4855.573242
1.804363	4896.247070
1.804445	4869.072266
1.804528	4928.570313
1.804610	4882.562012
1.804692	4900.603516
1.804775	4975.132324
1.804857	4921.606934
1.804939	4962.223145
1.805022	4840.958984
1.805104	4806.299805
1.805186	4937.229492
1.805269	4804.740234
1.805351	5003.342285
1.805434	4848.317383
1.805516	4922.744629
1.805598	5012.187988
1.805681	5015.134277
1.805763	4946.661133
1.805846	4964.650391
1.805928	5129.181152
1.806011	5004.367188
1.806093	5003.555664
1.806176	4912.604492
1.806258	4998.177246
1.806341	5053.685547
1.806423	4876.428711
1.806506	5145.880859
1.806589	4826.061035
1.806671	5084.177246
1.806754	5057.092285
1.806836	5045.019043
1.806919	5036.700195
1.807002	4942.140625
1.807084	5140.042480
1.807167	5015.507813
1.807250	5157.115234
1.807333	4995.145020
1.807415	5088.002441
1.807498	4974.794922
1.807581	5075.116211
1.807664	5029.354980
1.807746	5144.611816
1.807829	5038.955078
1.807912	5049.367676
1.807995	5078.488281
1.808078	5159.985352
1.808160	5103.030273
1.808243	5042.353516
1.808326	5045.275879
1.808409	5100.549316
1.808492	4923.998535
1.808575	5054.037598
1.808658	5113.019531
1.808741	5138.349609
1.808824	5171.144043
1.808907	5099.326172
1.808990	5199.349121
1.809073	5273.197754
1.809156	5242.471680
1.809239	5047.487793
1.809322	5225.841309
1.809405	5266.047852
1.809488	5183.100586
1.809571	5260.610352
1.809654	5099.354004
1.809737	5251.445801
1.809820	5142.450684
1.809903	5227.373047
1.809987	5211.614258
1.810070	5303.952637
1.810153	5358.993652
1.810236	5220.259766
1.810319	5230.590332
1.810403	5188.769043
1.810486	5158.134277
1.810569	5067.930176
1.810652	5238.370605
1.810735	5256.134277
1.810819	5329.720215
1.810902	5369.790527
1.810985	5346.596680
1.811069	5081.605957
1.811152	5270.475098
1.811235	5258.464844
1.811319	5376.597168
1.811402	5357.137695
1.811486	5222.456543
1.811569	5359.119141
1.811652	5454.862793
1.811736	5283.078125
1.811819	5289.651367
1.811903	5504.208984
1.811986	5291.651855
1.812070	5431.882324
1.812153	5089.477051
1.812237	5459.815918
1.812320	5306.779297
1.812404	5350.445313
1.812487	5375.547363
1.812571	5267.109375
1.812654	5503.608887
1.812738	5476.761230
1.812822	5334.992188
1.812905	5256.284668
1.812989	5210.958496
1.813072	5280.521973
1.813156	5557.543945
1.813240	5464.033203
1.813323	5340.922363
1.813407	5465.967285
1.813491	5398.435059
1.813575	5456.793457
1.813658	5337.463867
1.813742	5492.034668
1.813826	5476.344727
1.813910	5534.652344
1.813993	5541.154297
1.814077	5514.368164
1.814161	5487.590332
1.814245	5556.949707
1.814329	5552.353516
1.814413	5466.445801
1.814497	5509.906250
1.814580	5420.337891
1.814664	5445.320313
1.814748	5425.970215
1.814832	5521.111328
1.814916	5431.599121
1.815000	5559.934570
1.815084	5499.974609
1.815168	5613.495117
1.815252	5560.925293
1.815336	5456.720215
1.815420	5640.280762
1.815504	5716.821777
1.815588	5476.197266
1.815672	5515.869141
1.815756	5636.630371
1.815840	5532.513184
1.815925	5524.247559
1.816009	5597.047363
1.816093	5533.511719
1.816177	5628.387207
1.816261	5524.355469
1.816345	5486.638184
1.816429	5390.025879
1.816514	5481.181641
1.816598	5380.920898
1.816682	5600.845703
1.816766	5577.863281
1.816851	5473.956543
1.816935	5469.392578
1.817019	5729.613281
1.817104	5655.147461
1.817188	5566.000000
1.817272	5539.369141
1.817356	5615.651367
1.817441	5732.329102
1.817525	5606.486328
1.817610	5620.272949
1.817694	5446.742676
1.817778	5567.043945
1.817863	5514.741211
1.817947	5778.161621
1.818032	5696.477539
1.818116	5636.839355
1.818201	5709.312012
1.818285	5583.654785
1.818370	5670.784668
1.818454	5669.867188
1.818539	5489.274902
1.818623	5759.689941
1.818708	5733.098633
1.818792	5666.200195
1.818877	5654.290039
1.818961	5664.367676
1.819046	5733.053711
1.819131	5673.523438
1.819215	5683.592285
1.819300	5799.841797
1.819385	5780.599121
1.819469	5505.139648
1.819554	5515.228516
1.819639	5689.975586
1.819723	5692.713867
1.819808	5684.477539
1.819893	5712.817383
1.819978	5609.503906
1.820063	5780.437500
1.820147	5797.781250
1.820232	5756.638672
1.820317	5868.994629
1.820402	5889.968750
1.820487	5680.781738
1.820571	5862.495605
1.820656	5635.120605
1.820741	5634.209473
1.820826	5709.966797
1.820911	5716.344238
1.820996	5759.216309
1.821081	5696.250488
1.821166	5735.463379
1.821251	5599.562988
1.821336	5835.734375
1.821421	5747.269531
1.821506	5790.094238
1.821591	5606.879883
1.821676	5759.062500
1.821761	5798.219727
1.821846	5585.942383
1.821931	5759.913574
1.822016	5573.208984
1.822101	5830.892090
1.822186	6019.304688
1.822272	5788.958008
1.822357	5864.467773
1.822442	5703.374512
1.822527	5858.933594
1.822612	5887.094727
1.822697	5707.885254
1.822783	5772.434570
1.822868	5789.685547
1.822953	5825.111328
1.823038	5864.161133
1.823124	5855.943359
1.823209	5775.040527
1.823294	5792.276367
1.823380	5965.734375
1.823465	5695.956055
1.823550	5840.317383
1.823636	5803.059082
1.823721	5696.826172
1.823806	5772.141602
1.823892	5865.581055
1.823977	5712.210938
1.824063	5878.199707
1.824148	5746.644531
1.824233	5999.629883
1.824319	5878.977539
1.824404	5823.635254
1.824490	5931.461914
1.824575	5937.753418
1.824661	5697.583008
1.824746	5845.239258
1.824832	5978.354980
1.824918	5781.765625
1.825003	5878.627441
1.825089	5960.972168
1.825174	5865.865723
1.825260	5879.399414
1.825346	5835.012695
1.825431	5906.453125
1.825517	5905.499023
1.825603	5828.567871
1.825688	5910.826172
1.825774	5837.535156
1.825860	5796.813965
1.825945	5821.187012
1.826031	5860.012207
1.826117	5891.596191
1.826203	5872.575195
1.826288	5914.986328
1.826374	5932.094727
1.826460	5837.220703
1.826546	5800.162598
1.826632	5918.387695
1.826717	5809.120117
1.826803	5717.937012
1.826889	5843.336426
1.826975	5889.305176
1.827061	5852.273438
1.827147	5916.262695
1.827233	5839.562500
1.827319	5871.076660
1.827405	5873.733887
1.827491	5818.708496
1.827577	5846.605469
1.827663	5950.176758
1.827749	5797.873047
1.827835	6013.105957
1.827921	5889.658691
1.828007	5910.317871
1.828093	5891.358398
1.828179	5876.004883
1.828265	5986.653320
1.828351	5895.703613
1.828438	5912.745605
1.828524	5775.060547
1.828610	5860.470215
1.828696	5748.016602
1.828782	5847.788574
1.828868	5940.336426
1.828955	5896.234375
1.829041	6085.800781
1.829127	5858.389648
1.829213	5835.882813
1.829300	5928.356934
1.829386	5916.623047
1.829472	5901.300781
1.829558	5839.297363
1.829645	6147.148438
1.829731	6002.554688
1.829818	5915.438477
1.829904	5799.639160
1.829990	5884.822266
1.830077	5955.626953
1.830163	6004.885742
1.830250	5824.587891
1.830336	5830.819824
1.830422	6052.174316
1.830509	5882.710449
1.830595	6114.737305
1.830682	5769.717285
1.830768	5987.354980
1.830855	5889.660645
1.830941	6049.897461
1.831028	5816.132813
1.831115	6119.560547
1.831201	5871.538574
1.831288	6024.515137
1.831374	5891.118164
1.831461	5900.902832
1.831547	5849.859863
1.831634	5927.616699
1.831721	6023.232422
1.831807	6104.512207
1.831894	5817.479980
1.831981	6016.741699
1.832068	5858.495605
1.832154	6018.374023
1.832241	5917.351074
1.832328	5848.514648
1.832415	5861.859863
1.832501	5943.059570
1.832588	6009.949219
1.832675	5776.903320
1.832762	6100.825195
1.832849	5903.532227
1.832936	5870.461426
1.833022	5994.397949
1.833109	5857.864746
1.833196	6045.967773
1.833283	5895.205078
1.833370	5890.687988
1.833457	5907.563477
1.833544	5931.562988
1.833631	5923.478027
1.833718	5979.538086
1.833805	6053.395020
1.833892	5995.420898
1.833979	6040.756348
1.834066	5840.355469
1.834153	6010.322754
1.834240	5927.472168
1.834327	6068.894531
1.834414	5943.354492
1.834501	6163.011719
1.834589	6051.727051
1.834676	5968.936035
1.834763	6064.001465
1.834850	6119.919922
1.834937	6101.155273
1.835024	5936.646973
1.835111	6020.992676
1.835199	6030.682617
1.835286	6015.497070
1.835373	5826.239746
1.835461	6169.845215
1.835548	5977.072754
1.835635	5802.116211
1.835722	5921.890137
1.835810	5963.531738
1.835897	5880.939453
1.835984	6046.773926
1.836072	5776.150879
1.836159	6027.086914
1.836246	5891.333984
1.836334	5964.855957
1.836421	5910.708496
1.836509	5980.658203
1.836596	6103.753418
1.836684	5996.449219
1.836771	6013.199219
1.836859	5913.029785
1.836946	6032.513672
1.837034	5875.705566
1.837121	5903.087402
1.837209	5902.135254
1.837296	5936.583496
1.837384	5854.219238
1.837471	5998.368652
1.837559	6004.478027
1.837647	5762.944824
1.837734	5903.501953
1.837822	6026.330078
1.837910	5951.102051
1.837997	5918.323730
1.838085	6055.229492
1.838173	5941.155762
1.838260	5943.731445
1.838348	5900.375000
1.838436	5945.347656
1.838524	5976.177246
1.838611	6077.625488
1.838699	6076.645996
1.838787	5870.908203
1.838875	5947.615723
1.838963	6041.944824
1.839051	5903.354980
1.839138	5905.931152
1.839226	5855.594727
1.839314	5914.607910
1.839402	5860.759766
1.839490	6022.000000
1.839578	6102.108398
1.839666	6189.240234
1.839754	5980.323242
1.839842	5873.654785
1.839930	5774.065918
1.840018	5984.476563
1.840106	6018.729492
1.840194	5876.910645
1.840282	5865.401367
1.840370	5896.136719
1.840458	5944.459473
1.840546	6013.880371
1.840634	5872.175781
1.840722	6022.495117
1.840810	6053.179688
1.840898	5908.020508
1.840987	6177.808594
1.841075	5941.271484
1.841163	5859.469238
1.841251	5855.010742
1.841339	5913.802246
1.841428	5937.441895
1.841516	5908.383301
1.841604	5988.210449
1.841692	6008.314941
1.841781	5958.192383
1.841869	5837.876953
1.841957	5893.094238
1.842046	5871.088379
1.842134	6031.544922
1.842222	5883.229004
1.842311	5885.788574
1.842399	6067.207031
1.842487	5918.956543
1.842576	6030.192383
1.842664	6067.779785
1.842753	5986.191406
1.842841	5887.108398
1.842930	5840.612305
1.843018	5906.229980
1.843107	6097.917969
1.843195	5841.291016
1.843284	6008.417480
1.843372	5821.904785
1.843461	5978.479004
1.843549	5806.029785
1.843638	5875.077148
1.843726	5996.581055
1.843815	5901.168457
1.843904	5679.877441
1.843992	5843.316406
1.844081	5880.834473
1.844170	5883.382813
1.844258	5896.415527
1.844347	6087.671387
1.844436	5978.374023
1.844525	6012.345703
1.844613	5938.024902
1.844702	5891.666992
1.844791	5922.144531
1.844880	5809.469727
1.844968	6049.392578
1.845057	5901.832031
1.845146	5869.475098
1.845235	6022.045898
1.845324	5968.749023
1.845412	5929.420898
1.845501	5991.237305
1.845590	5917.050293
1.845679	5923.069336
1.845768	5869.830566
1.845857	5753.876953
1.845946	6010.804688
1.846035	5873.961914
1.846124	6026.285645
1.846213	5892.966797
1.846302	5912.911133
1.846391	5713.500977
1.846480	5959.742676
1.846569	5986.627441
1.846658	6016.983398
1.846747	5918.588867
1.846836	5691.505859
1.846925	5850.593750
1.847015	5842.695801
1.847104	5873.049805
1.847193	5938.160645
1.847282	5798.159180
1.847371	5772.896484
1.847460	5890.116699
1.847550	5757.139160
1.847639	5790.950684
1.847728	5783.071289
1.847817	5903.686523
1.847907	5805.514160
1.847996	5821.937500
1.848085	5963.313965
1.848175	5754.122070
1.848264	5968.333008
1.848353	5932.677734
1.848442	5924.784668
1.848532	5885.679199
1.848621	5999.166504
1.848711	5810.973145
1.848800	5796.170898
1.848889	5895.752930
1.848979	5787.373047
1.849068	5776.046387
1.849158	5778.580566
1.849247	5722.229004
1.849337	5811.352051
1.849426	5758.475586
1.849516	5809.480469
1.849605	5815.468262
1.849695	5821.453613
1.849785	5803.213867
1.849874	5843.798340
1.849964	5835.938965
1.850053	5866.128418
1.850143	5799.477051
1.850233	5781.254883
1.850322	5894.409180
1.850412	5720.631348
1.850502	5951.263184
1.850591	5722.244629
1.850681	5676.409180
1.850771	5951.843262
1.850861	5902.531738
1.850950	5956.833008
1.851040	5883.367676
1.851130	5685.649414
1.851220	5874.570313
1.851310	5839.114258
1.851399	5803.669434
1.851489	5750.986328
1.851579	5888.034180
1.851669	5749.134766
1.851759	5775.794922
1.851849	5754.178711
1.851939	5715.333984
1.852029	5679.948242
1.852119	5847.888672
1.852208	5781.483398
1.852298	5780.552246
1.852389	5714.179199
1.852479	5785.578613
1.852569	5698.566406
1.852659	5652.894043
1.852749	5851.627441
1.852839	5620.099609
1.852929	5770.600098
1.853019	5814.396973
1.853109	5985.457031
1.853199	5785.010254
1.853289	5918.192871
1.853379	5618.111328
1.853470	5964.415039
1.853560	5712.542969
1.853650	5636.018555
1.853740	5724.448242
1.853830	5682.300781
1.853921	5839.393066
1.854011	5879.665527
1.854101	5676.123047
1.854191	5585.944336
1.854282	5842.499512
1.854372	5597.874512
1.854462	5768.554688
1.854553	5489.709473
1.854643	5639.768555
1.854733	5683.450195
1.854824	5679.105957
1.854914	5760.484375
1.855004	5762.985840
1.855095	5875.173828
1.855185	5644.605469
1.855276	5739.643066
1.855366	5694.180176
1.855457	5768.625488
1.855547	5719.747070
1.855638	5513.359863
1.855728	5693.938965
1.855819	5624.555176
1.855909	5757.139160
1.856000	5554.300293
1.856091	5731.333984
1.856181	5579.881348
1.856272	5883.416016
1.856362	5639.645996
1.856453	5457.505371
1.856544	5716.466309
1.856634	5749.730469
1.856725	5608.673340
1.856816	5628.274414
1.856907	5644.452637
1.856997	5623.046875
1.857088	5608.479492
1.857179	5600.746582
1.857270	5627.161621
1.857360	5667.223633
1.857451	5577.562012
1.857542	5498.167969
1.857633	5531.406738
1.857724	5561.222656
1.857815	5618.318848
1.857905	5631.057129
1.857996	5422.132324
1.858087	5605.377930
1.858178	5676.065918
1.858269	5426.332031
1.858360	5517.473145
1.858451	5537.029785
1.858542	5651.971680
1.858633	5702.156738
1.858724	5578.631836
1.858815	5540.276855
1.858906	5450.864258
1.858997	5746.145020
1.859088	5510.374023
1.859179	5546.920898
1.859270	5556.235352
1.859362	5364.833496
1.859453	5377.575684
1.859544	5427.723145
1.859635	5549.259766
1.859726	5385.179688
1.859817	5455.695801
1.859909	5475.209961
1.860000	5593.262207
1.860091	5527.808594
1.860182	5537.110352
1.860273	5471.686523
1.860365	5538.724121
1.860456	5334.111328
1.860547	5489.414551
1.860639	5410.463379
1.860730	5429.955078
1.860821	5371.397461
1.860913	5540.164551
1.861004	5457.862793
1.861096	5565.514160
1.861187	5574.791504
1.861278	5384.029297
1.861370	5342.484375
1.861461	5294.173828
1.861553	5266.211426
1.861644	5417.835938
1.861736	5488.106445
1.861827	5368.672363
1.861919	5367.808594
1.862010	5427.894531
1.862102	5284.828613
1.862193	5331.368164
1.862285	5300.050293
1.862376	5421.018066
1.862468	5311.878418
1.862560	5260.281738
1.862651	5364.285645
1.862743	5370.186035
1.862835	5413.277344
1.862926	5409.025879
1.863018	5418.295898
1.863110	5366.730957
1.863201	5284.771484
1.863293	5300.813477
1.863385	5316.850098
1.863477	5359.900879
1.863569	5315.139648
1.863660	5327.789551
1.863752	5256.041992
1.863844	5245.070801
1.863936	5277.973633
1.864028	5293.995117
1.864120	5212.177246
1.864212	5238.323242
1.864303	5274.578125
1.864395	5341.168457
1.864487	5269.509766
1.864579	5261.919922
1.864671	5294.776855
1.864763	5226.529297
1.864855	5299.812012
1.864947	5093.468750
1.865039	5335.156738
1.865131	5240.005371
1.865223	5313.237793
1.865315	5157.522461
1.865408	5149.960938
1.865500	5078.458008
1.865592	5215.602539
1.865684	5201.305664
1.865776	5227.379883
1.865868	5344.253906
1.865960	5252.600098
1.866053	5197.959961
1.866145	5143.337402
1.866237	5243.343262
1.866329	5104.716309
1.866421	5174.456055
1.866514	5180.342285
1.866606	5082.099609
1.866698	4946.945313
1.866791	5036.812500
1.866883	4948.711426
1.866975	5139.252441
1.867068	4937.050781
1.867160	5124.176758
1.867252	5133.417969
1.867345	5146.010742
1.867437	5165.307617
1.867530	5110.819824
1.867622	5123.409668
1.867715	4958.313965
1.867807	4970.924316
1.867900	5094.126465
1.867992	5049.746094
1.868085	4961.825195
1.868177	5135.215820
1.868270	5097.548340
1.868362	5120.169434
1.868455	5045.686035
1.868547	4991.312500
1.868640	4957.038574
1.868733	5009.786133
1.868825	4881.832031
1.868918	5055.011230
1.869011	4940.470703
1.869103	4986.497559
1.869196	5009.102539
1.869289	5048.416504
1.869381	5047.604492
1.869474	4983.290039
1.869567	4999.197266
1.869660	4991.710449
1.869752	4950.820313
1.869845	4976.744629
1.869938	4935.869629
1.870031	4841.583008
1.870124	4954.312988
1.870216	4923.474609
1.870309	4849.259277
1.870402	4855.153320
1.870495	4877.726563
1.870588	4820.233398
1.870681	4996.227539
1.870774	4922.060059
1.870867	4777.897949
1.870960	4850.469727
1.871053	4949.683594
1.871146	4902.230957
1.871239	4704.852051
1.871332	4824.029785
1.871425	4833.246582
1.871518	4812.486816
1.871611	4815.042480
1.871704	4707.728516
1.871797	4773.547852
1.871891	4882.614258
1.871984	4845.223145
1.872077	4950.915527
1.872170	4953.445801
1.872263	4773.036621
1.872356	4832.130371
1.872450	4781.476563
1.872543	4817.277832
1.872636	4906.251465
1.872729	4762.552734
1.872823	4791.693359
1.872916	4880.627930
1.873009	4700.461426
1.873103	4766.132324
1.873196	4718.874512
1.873289	4628.468262
1.873383	4866.745605
1.873476	4729.875000
1.873569	4656.103516
1.873663	4671.945313
1.873756	4707.687988
1.873850	4607.418457
1.873943	4702.856934
1.874037	4794.949219
1.874130	4525.624512
1.874224	4743.682617
1.874317	4441.308594
1.874411	4619.543945
1.874504	4645.307617
1.874598	4671.062988
1.874691	4614.002930
1.874785	4550.337891
1.874879	4615.830566
1.874972	4449.554199
1.875066	4541.522461
1.875160	4507.696289
1.875253	4506.971191
1.875347	4469.852539
1.875441	4541.910156
1.875534	4329.500488
1.875628	4517.300781
1.875722	4599.234863
1.875816	4343.941406
1.875909	4534.953613
1.876003	4511.090820
1.876097	4553.320801
1.876191	4466.690918
1.876285	4459.366211
1.876378	4481.768066
1.876472	4593.320801
1.876566	4473.723145
1.876660	4733.791504
1.876754	4548.197754
1.876848	4491.365723
1.876942	4493.942871
1.877036	4390.951660
1.877130	4558.466797
1.877224	4455.498047
1.877318	4415.212891
1.877412	4477.143066
1.877506	4354.458984
1.877600	4442.745117
1.877694	4323.400879
1.877788	4388.600586
1.877882	4384.600586
1.877976	4406.951172
1.878070	4419.415527
1.878165	4300.169922
1.878259	4431.162598
1.878353	4321.828125
1.878447	4436.319336
1.878541	4346.762207
1.878635	4471.082520
1.878730	4421.021973
1.878824	4456.489258
1.878918	4386.716309
1.879012	4270.935547
1.879107	4408.316895
1.879201	4450.336426
1.879295	4341.173340
1.879390	4370.047363
1.879484	4323.351563
1.879578	4293.093750
1.879673	4207.015137
1.879767	4268.728027
1.879862	4192.529785
1.879956	4385.527832
1.880050	4266.668945
1.880145	4144.566406
1.880239	4206.238770
1.880334	4179.318359
1.880428	4309.844238
1.880523	4171.415527
1.880617	4183.860352
1.880712	4196.301270
1.880807	4189.070801
1.880901	4149.069336
1.880996	4194.276855
1.881090	4209.983887
1.881185	4186.376953
1.881280	4198.804199
1.881374	4227.601074
1.881469	4197.454102
1.881564	4288.440430
1.881658	4287.750977
1.881753	4267.425781
1.881848	4217.659180
1.881943	4200.623535
1.882037	4245.741699
1.882132	4137.133789
1.882227	4172.437988
1.882322	4139.072754
1.882416	4102.449219
1.882511	4225.987305
1.882606	4257.986328
1.882701	4093.936035
1.882796	4057.343018
1.882891	4037.093018
1.882986	4007.052246
1.883081	3990.082031
1.883176	4133.086426
1.883271	4021.440430
1.883365	3945.730225
1.883461	4003.831543
1.883555	4159.791504
1.883650	4041.688721
1.883746	3894.269775
1.883841	4102.348145
1.883936	4069.083740
1.884031	3931.510986
1.884126	4002.586426
1.884221	4008.460449
1.884316	3962.198486
1.884411	3974.592773
1.884506	3977.211182
1.884602	3937.489746
1.884697	3878.243408
1.884792	3975.292725
1.884887	3942.101074
1.884982	3827.551758
1.885078	3999.408936
1.885173	3888.140869
1.885268	3881.009277
1.885363	3909.658691
1.885459	3980.576416
1.885554	3833.615234
1.885649	3810.241211
1.885745	3894.142578
1.885840	3773.265869
1.885936	3883.141602
1.886031	3902.010986
1.886126	3940.364990
1.886222	3968.962646
1.886317	3779.975098
1.886413	3893.008057
1.886508	3937.831055
1.886604	3836.576904
1.886699	3858.677246
1.886795	3776.936768
1.886890	3909.344482
1.886986	3730.309814
1.887082	3732.953125
1.887177	3855.575684
1.887273	3692.846436
1.887368	3783.019043
1.887464	3753.240479
1.887560	3814.208740
1.887655	3729.352783
1.887751	3751.430176
1.887847	3773.500244
1.887942	3734.031006
1.888038	3833.809082
1.888134	3768.442627
1.888230	3661.016602
1.888325	3802.831787
1.888421	3740.737549
1.888517	3594.542480
1.888613	3687.776123
1.888709	3764.808105
1.888804	3670.420898
1.888900	3802.397217
1.888996	3711.267090
1.889092	3639.559814
1.889188	3651.901611
1.889284	3725.633301
1.889380	3708.880371
1.889476	3511.240967
1.889572	3459.001221
1.889668	3732.924805
1.889764	3551.519775
1.889860	3554.176758
1.889956	3676.254639
1.890052	3601.440186
1.890148	3600.861084
1.890244	3545.438965
1.890340	3786.784424
1.890436	3566.874023
1.890532	3646.912842
1.890628	3704.358154
1.890725	3684.421631
1.890821	3403.432617
1.890917	3560.784424
1.891013	3553.767822
1.891109	3556.417725
1.891206	3520.416260
1.891302	3590.697998
1.891398	3622.318848
1.891495	3515.498779
1.891591	3428.025635
1.891687	3498.276855
1.891783	3426.923340
1.891880	3461.761963
1.891976	3721.760498
1.892072	3422.053955
1.892169	3440.797852
1.892265	3475.611572
1.892362	3548.989746
1.892458	3429.495605
1.892555	3528.566650
1.892651	3457.310547
1.892748	3382.864990
1.892844	3542.924805
1.892941	3468.489014
1.893037	3426.187744
1.893134	3509.110352
1.893230	3521.386230
1.893327	3347.506836
1.893423	3462.491943
1.893520	3381.723389
1.893616	3413.259033
1.893713	3444.784424
1.893810	3508.368896
1.893906	3446.883057
1.894003	3395.034424
1.894100	3413.720703
1.894197	3477.268799
1.894293	3457.483398
1.894390	3296.736084
1.894487	3344.255615
1.894584	3343.717773
1.894680	3413.630127
1.894777	3381.063477
1.894874	3319.695801
1.894971	3376.775146
1.895068	3280.225586
1.895165	3292.496826
1.895262	3330.357422
1.895358	3406.590088
1.895455	3393.249512
1.895552	3341.541504
1.895649	3273.864258
1.895746	3286.124268
1.895843	3371.890625
1.895940	3393.717285
1.896037	3310.099609
1.896134	3258.454102
1.896231	3245.153809
1.896328	3372.373291
1.896425	3349.479736
1.896523	3093.540283
1.896620	3319.674561
1.896717	3236.162109
1.896814	3369.662109
1.896911	3180.883301
1.897008	3422.807373
1.897105	3326.573975
1.897203	3195.293457
1.897300	3382.895264
1.897397	3184.701904
1.897494	3196.939209
1.897591	3250.601563
1.897689	3297.874023
1.897786	3278.228516
1.897883	3290.442627
1.897981	3270.804443
1.898078	3263.909912
1.898175	3285.671387
1.898273	3218.293945
1.898370	3240.055664
1.898468	3296.815186
1.898565	3223.104736
1.898662	3200.317871
1.898760	3152.092285
1.898857	3218.369629
1.898955	3122.460938
1.899052	3191.900879
1.899150	3264.496826
1.899247	3089.172852
1.899345	3260.269043
1.899442	3345.527344
1.899540	3160.744873
1.899638	3157.060303
1.899735	3328.035156
1.899833	3127.468994
1.899930	3031.728271
1.900028	3129.636963
1.900126	3062.488770
1.900223	3252.379150
1.900321	3166.197266
1.900419	3178.376221
1.900517	3203.237061
1.900614	3180.524658
1.900712	3151.478516
1.900810	3147.801758
1.900908	3182.159668
1.901006	3203.830566
1.901103	3060.734375
1.901201	3155.280518
1.901299	3113.596191
1.901397	3040.255859
1.901495	3131.593262
1.901593	3121.591553
1.901691	3070.442871
1.901789	3155.401367
1.901887	3192.866211
1.901984	3030.994873
1.902083	3071.631104
1.902181	3014.205566
1.902279	3140.214600
1.902377	3193.460693
1.902475	3066.493652
1.902573	3145.020996
1.902671	3002.300781
1.902769	3065.013916
1.902867	3055.042969
1.902965	2918.723389
1.903063	3022.477295
1.903161	2984.097656
1.903260	3144.638428
1.903358	2992.607910
1.903456	3121.532715
1.903554	2944.309082
1.903653	2937.524902
1.903751	2937.052246
1.903849	2977.584717
1.903947	2996.027832
1.904045	2948.247803
1.904144	3045.507080
1.904242	3035.560547
1.904341	3022.465332
1.904439	3044.037354
1.904537	3012.041016
1.904636	3071.409424
1.904734	3105.561523
1.904832	2890.919678
1.904931	2959.724609
1.905029	2956.100342
1.905128	2974.510498
1.905226	2945.708008
1.905325	2992.433105
1.905423	2859.815186
1.905522	3013.489502
1.905620	2890.345947
1.905719	2959.062012
1.905818	3112.645996
1.905916	2986.402100
1.906015	2976.492188
1.906114	3004.296387
1.906212	2950.397949
1.906311	3019.037598
1.906410	2996.564453
1.906508	2958.395752
1.906607	2888.838867
1.906706	3017.094971
1.906804	2906.743408
1.906903	2918.829834
1.907002	2949.740479
1.907101	2908.478027
1.907200	2908.010010
1.907298	2942.043701
1.907397	3001.154297
1.907496	3022.619873
1.907595	2953.163574
1.907694	2990.302246
1.907793	2836.255859
1.907892	2901.602539
1.907991	2822.811279
1.908090	2866.211670
1.908188	2944.049805
1.908288	2974.890625
1.908386	2839.780518
1.908486	2858.106445
1.908584	2857.646484
1.908684	2803.986084
1.908783	2872.371582
1.908882	2887.551514
1.908981	2874.575195
1.909080	2899.132080
1.909179	2804.857422
1.909278	2895.072510
1.909377	2878.977051
1.909477	2916.018799
1.909576	2840.551514
1.909675	2911.956055
1.909774	2770.911133
1.909873	2804.822754
1.909973	2826.231689
1.910072	2913.204346
1.910171	2859.663086
1.910271	2778.046631
1.910370	2808.808350
1.910469	2880.125488
1.910568	2860.942627
1.910668	2935.347656
1.910767	2888.091797
1.910867	2856.443115
1.910966	2768.682617
1.911065	2811.880371
1.911165	2827.012207
1.911264	2851.488281
1.911364	2816.754639
1.911463	2797.609131
1.911563	2691.253174
1.911662	2849.653076
1.911762	2693.500732
1.911862	2774.014893
1.911961	2761.116943
1.912061	2832.257080
1.912160	2834.913086
1.912260	2728.670166
1.912359	2737.563721
1.912459	2855.316895
1.912559	2764.671387
1.912659	2730.023193
1.912758	2801.087891
1.912858	2834.828857
1.912958	2793.970459
1.913057	2712.729248
1.913157	2886.277100
1.913257	2677.686035
1.913357	2773.536865
1.913457	2813.459961
1.913556	2722.966064
1.913656	2725.632080
1.913756	2743.816650
1.913856	2709.238037
1.913956	2792.579346
1.914056	2764.208496
1.914156	2670.707520
1.914256	2853.258301
1.914356	2738.066895
1.914456	2771.730225
1.914556	2696.886963
1.914656	2671.657959
1.914756	2795.182861
1.914856	2763.749023
1.914956	2856.240479
1.915056	2880.559570
1.915156	2762.414551
1.915256	2758.873535
1.915356	2786.292236
1.915456	2782.748291
1.915557	2708.023193
1.915657	2732.342285
1.915757	2688.587891
1.915857	2731.462646
1.915957	2724.837158
1.916057	2705.843994
1.916158	2767.246338
1.916258	2590.591064
1.916358	2642.719482
1.916458	2744.277100
1.916559	2663.497803
1.916659	2755.751221
1.916759	2798.552246
1.916860	2634.416016
1.916960	2692.662109
1.917061	2701.490967
1.917161	2586.839844
1.917262	2632.719727
1.917362	2727.959717
1.917462	2761.460205
1.917563	2680.807129
1.917663	2708.135498
1.917764	2686.111816
1.917864	2633.260986
1.917965	2608.173340
1.918066	2724.886475
1.918166	2635.071045
1.918267	2748.660645
1.918367	2674.275146
1.918468	2664.603027
1.918569	2463.976074
1.918669	2709.937012
1.918770	2801.870117
1.918871	2733.692383
1.918971	2650.146484
1.919072	2668.184814
1.919173	2673.909180
1.919273	2642.713379
1.919374	2673.048096
1.919475	2746.429688
1.919576	2672.187256
1.919677	2601.042969
1.919777	2640.586426
1.919878	2673.969971
1.919979	2710.415771
1.920080	2660.818604
1.920181	2583.589111
1.920282	2798.181396
1.920383	2631.893799
1.920484	2729.728027
1.920585	2698.587646
1.920686	2676.666260
1.920787	2581.093750
1.920888	2605.226807
1.920989	2564.921875
1.921090	2650.401611
1.921191	2625.437988
1.921292	2618.881836
1.921393	2636.856689
1.921494	2636.432129
1.921595	2645.202881
1.921696	2672.358398
1.921798	2644.350830
1.921899	2570.397461
1.922000	2643.499023
1.922101	2655.323975
1.922202	2556.906982
1.922304	2675.900391
1.922405	2623.429443
1.922506	2699.523926
1.922607	2696.029053
1.922709	2637.460449
1.922810	2624.798828
1.922911	2636.610840
1.923013	2587.254639
1.923114	2684.685303
1.923216	2629.222412
1.923317	2555.437256
1.923418	2545.856689
1.923520	2704.346191
1.923621	2758.905273
1.923723	2605.722168
1.923824	2638.899658
1.923926	2510.215332
1.924027	2616.676270
1.924129	2680.363770
1.924230	2673.827393
1.924332	2621.515625
1.924433	2618.041992
1.924535	2587.111816
1.924637	2543.990234
1.924738	2717.422363
1.924840	2552.318848
1.924942	2603.738525
1.925043	2694.770508
1.925145	2636.426514
1.925247	2596.385498
1.925348	2656.905273
1.925450	2632.105957
1.925552	2692.600586
1.925654	2573.394531
1.925756	2496.856445
1.925857	2621.276855
1.925959	2636.074219
1.926061	2599.127930
1.926163	2586.537109
1.926265	2549.610596
1.926367	2546.157715
1.926468	2573.121094
1.926570	2636.568115
1.926672	2669.589111
1.926774	2629.638428
1.926876	2534.988525
1.926978	2531.541016
1.927080	2534.171631
1.927182	2646.172607
1.927284	2615.370117
1.927386	2584.577637
1.927488	2565.941650
1.927591	2677.864746
1.927693	2589.399902
1.927795	2595.052979
1.927897	2582.496094
1.927999	2645.797607
1.928101	2615.034424
1.928203	2690.442871
1.928306	2614.191650
1.928408	2556.158203
1.928510	2564.841553
1.928612	2582.615723
1.928715	2500.369141
1.928817	2587.843750
1.928919	2538.950439
1.929022	2562.775635
1.929124	2604.765625
1.929226	2389.335938
1.929329	2561.536621
1.929431	2567.178467
1.929533	2563.738037
1.929636	2599.641113
1.929738	2590.144531
1.929841	2632.082520
1.929943	2589.309570
1.930046	2673.575684
1.930148	2621.738281
1.930251	2597.128174
1.930353	2524.158936
1.930456	2596.291016
1.930558	2481.037842
1.930661	2568.260986
1.930764	2637.329834
1.930866	2516.084473
1.930969	2603.259521
1.931072	2545.468750
1.931174	2614.496582
1.931277	2496.351074
1.931380	2580.454834
1.931482	2643.408447
1.931585	2431.785156
1.931688	2440.442871
1.931791	2608.952881
1.931893	2557.266357
1.931996	2511.626709
1.932099	2613.720703
1.932202	2682.625732
1.932305	2709.316406
1.932407	2558.218994
1.932510	2491.526611
1.932613	2482.088135
1.932716	2505.782227
1.932819	2460.208984
1.932922	2583.254639
1.933025	2549.724854
1.933128	2465.039063
1.933231	2524.828125
1.933334	2497.341553
1.933437	2554.097900
1.933540	2463.449707
1.933643	2520.193115
1.933746	2573.910889
1.933849	2555.457520
1.933953	2555.045410
1.934056	2506.546387
1.934159	2485.107422
1.934262	2472.688721
1.934365	2562.409912
1.934468	2510.937256
1.934572	2516.538330
1.934675	2525.140137
1.934778	2491.710449
1.934881	2599.365479
1.934985	2385.868652
1.935088	2535.514404
1.935191	2487.103516
1.935295	2594.689453
1.935398	2549.283691
1.935501	2473.905762
1.935605	2416.541260
1.935708	2581.025635
1.935812	2463.717529
1.935915	2520.258301
1.936018	2549.814453
1.936122	2522.441406
1.936225	2528.025146
1.936329	2620.456543
1.936432	2503.255127
1.936536	2475.906982
1.936639	2526.394775
1.936743	2525.987305
1.936847	2459.747314
1.936950	2579.027100
1.937054	2509.808350
1.937157	2473.512207
1.937261	2562.827148
1.937365	2544.473877
1.937468	2388.609619
1.937572	2483.872803
1.937676	2498.414795
1.937779	2444.227051
1.937883	2569.310547
1.937987	2482.270752
1.938091	2568.481934
1.938195	2487.442139
1.938298	2531.825684
1.938402	2585.150146
1.938506	2563.840332
1.938610	2470.916748
1.938714	2509.306396
1.938818	2493.985596
1.938922	2481.652100
1.939026	2511.074707
1.939130	2552.414551
1.939234	2549.021484
1.939337	2539.667969
1.939442	2518.395752
1.939546	2520.969238
1.939650	2532.480225
1.939754	2484.409180
1.939858	2513.792480
1.939962	2459.783936
1.940066	2527.868896
1.940170	2667.379395
1.940274	2535.982910
1.940378	2592.118164
1.940482	2508.384766
1.940587	2558.556152
1.940691	2427.261475
1.940795	2566.652832
1.940899	2468.109131
1.941004	2565.824707
1.941108	2461.367432
1.941212	2496.636475
1.941316	2493.261963
1.941421	2531.485596
1.941525	2486.515869
1.941629	2480.174316
1.941734	2512.441650
1.941838	2509.066895
1.941943	2493.817871
1.942047	2493.415527
1.942152	2555.338623
1.942256	2498.545654
1.942360	2450.671875
1.942465	2512.571533
1.942569	2491.404297
1.942674	2559.208252
1.942778	2546.935303
1.942883	2478.340332
1.942988	2489.796631
1.943092	2613.864502
1.943197	2444.546631
1.943301	2473.778320
1.943406	2556.318604
1.943511	2493.711426
1.943616	2531.804199
1.943720	2566.923828
1.943825	2492.504150
1.943930	2506.900635
1.944034	2521.292236
1.944139	2532.720459
1.944244	2626.977539
1.944349	2487.535400
1.944453	2581.769287
1.944558	2557.697510
1.944663	2444.941650
1.944768	2456.370605
1.944873	2432.330566
1.944978	2328.514160
1.945083	2487.680664
1.945188	2428.198975
1.945293	2542.994873
1.945397	2601.645508
1.945503	2542.173828
1.945608	2394.158203
1.945712	2417.384766
1.945818	2499.626709
1.945922	2508.075195
1.946028	2534.222168
1.946133	2516.114746
1.946238	2453.774414
1.946343	2530.046143
1.946448	2470.671875
1.946553	2485.012207
1.946658	2478.716309
1.946764	2469.475342
1.946869	2575.146729
1.946974	2486.353516
1.947079	2506.570313
1.947184	2476.715820
1.947290	2423.315186
1.947395	2502.412354
1.947500	2534.387207
1.947606	2439.799805
1.947711	2495.315186
1.947816	2606.712402
1.947922	2447.443115
1.948027	2514.694580
1.948133	2484.881836
1.948238	2522.703369
1.948343	2475.260010
1.948449	2477.799561
1.948554	2442.134033
1.948660	2524.012451
1.948765	2597.050781
1.948871	2517.322510
1.948976	2437.620117
1.949082	2534.128174
1.949187	2410.409180
1.949293	2407.084473
1.949399	2597.470459
1.949504	2485.539063
1.949610	2523.280273
1.949716	2546.341309
1.949821	2507.799805
1.949927	2445.809570
1.950033	2559.768555
1.950138	2527.106689
1.950244	2412.381592
1.950350	2455.952881
1.950456	2352.997070
1.950562	2490.316895
1.950667	2495.773193
1.950773	2492.441406
1.950879	2538.892578
1.950985	2538.482422
1.951091	2523.435303
1.951197	2444.000000
1.951303	2534.325928
1.951409	2469.544678
1.951514	2542.283936
1.951620	2483.372070
1.951726	2585.331299
1.951832	2602.458252
1.951939	2496.786865
1.952044	2484.690918
1.952150	2493.057617
1.952257	2580.321289
1.952363	2387.069092
1.952469	2421.738770
1.952575	2508.971680
1.952681	2499.805176
1.952787	2493.561523
1.952893	2542.788330
1.953000	2498.593750
1.953106	2512.782227
1.953212	2459.852783
1.953318	2363.177734
1.953424	2599.075439
1.953531	2554.906982
1.953637	2458.263184
1.953743	2466.612793
1.953850	2419.572021
1.953956	2471.645020
1.954062	2395.476318
1.954169	2459.191406
1.954275	2377.222656
1.954382	2580.733887
1.954488	2492.947266
1.954594	2393.541504
1.954701	2559.103271
1.954807	2471.362549
1.954914	2433.127441
1.955020	2546.222900
1.955127	2571.996826
1.955234	2394.130615
1.955340	2466.457520
1.955447	2515.496338
1.955553	2488.921143
1.955660	2485.611816
1.955767	2491.023438
1.955873	2554.557373
1.955980	2597.730469
1.956087	2614.742432
1.956193	2471.984375
1.956300	2547.097412
1.956407	2532.166504
1.956514	2557.887695
1.956620	2418.134033
1.956727	2510.621582
1.956834	2434.764160
1.956941	2477.893311
1.957048	2523.909424
1.957154	2488.694580
1.957261	2520.193359
1.957368	2421.198242
1.957475	2533.874512
1.957582	2516.072510
1.957689	2486.683594
1.957796	2515.259033
1.957903	2413.447021
1.958010	2534.723633
1.958117	2534.313721
1.958224	2528.112305
1.958331	2432.154541
1.958438	2544.664551
1.958545	2503.730225
1.958652	2433.869141
1.958759	2552.111084
1.958867	2462.012939
1.958974	2539.715332
1.959081	2478.569580
1.959188	2475.277100
1.959295	2480.659424
1.959403	2431.115479
1.959510	2517.430664
1.959617	2462.117188
1.959724	2531.063232
1.959832	2498.876221
1.959939	2492.695313
1.960046	2506.731934
1.960154	2555.413574
1.960261	2491.486328
1.960368	2493.969727
1.960476	2519.541016
1.960583	2470.078369
1.960690	2576.428955
1.960798	2466.394775
1.960905	2414.080078
1.961013	2543.458008
1.961120	2566.112793
1.961228	2533.986816
1.961336	2478.812500
1.961443	2536.049072
1.961551	2460.722168
1.961658	2529.466797
1.961766	2503.133301
1.961874	2482.568359
1.961981	2470.648438
1.962089	2671.784424
1.962197	2487.120850
1.962304	2498.231201
1.962412	2538.114502
1.962520	2483.036865
1.962627	2497.019043
1.962735	2470.728516
1.962843	2499.086914
1.962951	2561.940430
1.963058	2469.529541
1.963166	2469.129883
1.963274	2445.738770
1.963382	2439.595947
1.963490	2505.281006
1.963598	2484.767578
1.963706	2467.133057
1.963814	2423.659424
1.963922	2388.813232
1.964030	2508.996338
1.964138	2468.406982
1.964246	2539.751953
1.964354	2496.301270
1.964462	2513.110352
1.964570	2395.099854
1.964678	2417.655762
1.964786	2511.890381
1.964894	2554.488770
1.965002	2462.346680
1.965110	2507.805176
1.965219	2507.399170
1.965327	2621.598877
1.965435	2389.136230
1.965543	2446.033691
1.965651	2571.642578
1.965760	2542.593506
1.965868	2470.611572
1.965976	2415.826904
1.966084	2495.568848
1.966193	2492.303467
1.966301	2543.397461
1.966410	2474.333740
1.966518	2505.393799
1.966626	2587.915771
1.966735	2367.345215
1.966843	2507.035889
1.966952	2463.757324
1.967060	2443.354492
1.967169	2554.392090
1.967277	2453.990479
1.967386	2542.139648
1.967494	2384.655029
1.967603	2507.051758
1.967711	2438.127197
1.967820	2477.695313
1.967928	2551.498779
1.968037	2556.792725
1.968146	2422.282959
1.968254	2524.585938
1.968363	2461.429199
1.968472	2435.365234
1.968580	2440.673340
1.968689	2497.294189
1.968798	2679.311035
1.968907	2490.785645
1.969015	2473.285889
1.969124	2487.130127
1.969233	2506.666748
1.969342	2543.285156
1.969451	2565.653809
1.969560	2420.036133
1.969669	2487.963623
1.969777	2481.868408
1.969886	2418.860840
1.969995	2478.219482
1.970104	2418.077393
1.970213	2514.393066
1.970322	2582.239014
1.970431	2542.012939
1.970540	2447.783691
1.970649	2569.614502
1.970758	2557.830078
1.970868	2483.534912
1.970977	2505.861572
1.971086	2471.367920
1.971195	2434.045166
1.971304	2493.285156
1.971413	2515.595459
1.971522	2461.250488
1.971632	2472.205322
1.971741	2491.670166
1.971850	2479.916748
1.971959	2428.449463
1.972068	2524.497559
1.972178	2478.711670
1.972287	2376.228760
1.972396	2514.765381
1.972506	2545.539551
1.972615	2545.126953
1.972724	2505.041992
1.972834	2374.304443
1.972943	2558.054443
1.973053	2430.182861
1.973162	2401.469727
1.973272	2480.361816
1.973381	2474.297852
1.973491	2417.285889
1.973600	2439.534912
1.973710	2569.302490
1.973819	2467.036133
1.973929	2537.354248
1.974039	2514.316895
1.974148	2460.181396
1.974258	2468.264893
1.974367	2400.019775
1.974477	2492.902588
1.974587	2540.540039
1.974697	2415.806152
1.974806	2463.440430
1.974916	2460.216553
1.975026	2533.245117
1.975135	2484.832275
1.975245	2442.081299
1.975355	2433.217041
1.975465	2503.380371
1.975575	2440.894043
1.975685	2539.246826
1.975794	2513.446777
1.975904	2431.245850
1.976014	2447.771729
1.976124	2472.750977
1.976234	2477.988525
1.976344	2500.135742
1.976454	2415.185059
1.976564	2420.428955
1.976674	2487.651123
1.976784	2484.430908
1.976894	2576.968018
1.977004	2514.600342
1.977114	2474.776611
1.977224	2499.710205
1.977335	2530.264893
1.977445	2425.733643
1.977555	2453.476563
1.977665	2444.639404
1.977775	2424.553955
1.977885	2455.095703
1.977996	2533.427979
1.978106	2412.129395
1.978216	2569.147949
1.978327	2386.053467
1.978437	2478.395508
1.978547	2371.232178
1.978658	2382.083740
1.978768	2530.553711
1.978878	2400.968262
1.978989	2394.963623
1.979099	2453.527100
1.979210	2343.664795
1.979320	2405.023926
1.979430	2460.751221
1.979541	2454.741455
1.979651	2499.222656
1.979762	2515.644287
1.979872	2467.567383
1.979983	2441.934814
1.980094	2435.932373
1.980204	2471.972412
1.980315	2474.373535
1.980425	2412.333008
1.980536	2459.564209
1.980647	2475.970459
1.980757	2408.358887
1.980868	2379.968506
1.980979	2368.384521
1.981090	2446.373779
1.981200	2471.164307
1.981311	2557.505859
1.981422	2403.218018
1.981533	2503.528564
1.981644	2539.480713
1.981754	2418.826416
1.981865	2460.372070
1.981976	2459.972900
1.982087	2361.750000
1.982198	2420.051514
1.982309	2430.835205
1.982420	2427.646973
1.982531	2376.976318
1.982642	2390.554199
1.982753	2496.271729
1.982864	2484.699463
1.982975	2367.059814
1.983086	2503.429443
1.983197	2606.269287
1.983308	2407.757568
1.983419	2460.367920
1.983530	2446.023193
1.983642	2412.162598
1.983753	2459.170166
1.983864	2322.172607
1.983975	2391.477539
1.984086	2505.348877
1.984198	2460.360352
1.984309	2423.744141
1.984420	2337.001465
1.984532	2411.817383
1.984643	2419.779541
1.984754	2433.307373
1.984865	2435.696045
1.984977	2440.866943
1.985088	2490.560303
1.985200	2428.945557
1.985311	2461.933350
1.985422	2391.998779
1.985534	2455.572021
1.985645	2405.124756
1.985757	2468.675049
1.985868	2448.817139
1.985980	2373.382813
1.986091	2392.448486
1.986203	2430.955322
1.986315	2355.560303
1.986426	2435.720459
1.986538	2443.655762
1.986650	2421.047607
1.986761	2420.654297
1.986873	2395.281494
1.986985	2458.719482
1.987096	2508.263428
1.987208	2424.630859
1.987320	2363.215088
1.987432	2426.616699
1.987543	2478.906250
1.987655	2431.373291
1.987767	2497.504639
1.987879	2419.497803
1.987991	2333.203125
1.988103	2429.794189
1.988214	2473.721680
1.988326	2426.235352
1.988438	2403.687500
1.988550	2428.216064
1.988662	2427.821777
1.988774	2452.338135
1.988886	2399.358887
1.988998	2365.765381
1.989110	2451.143311
1.989222	2395.423584
1.989334	2455.878418
1.989447	2408.471436
1.989559	2441.256836
1.989671	2349.638916
1.989783	2376.895508
1.989895	2398.616455
1.990007	2398.226807
1.990119	2475.186768
1.990232	2336.682861
1.990344	2408.104492
1.990456	2393.907471
1.990568	2390.757813
1.990681	2354.486328
1.990793	2395.500488
1.990905	2301.293701
1.991018	2369.892090
1.991130	2369.507080
1.991242	2374.637939
1.991355	2360.464355
1.991467	2382.137451
1.991580	2436.883545
1.991692	2395.144531
1.991805	2433.335693
1.991917	2446.716797
1.992030	2371.937988
1.992142	2366.043701
1.992255	2373.920898
1.992367	2299.190186
1.992480	2375.902344
1.992592	2345.237305
1.992705	2358.617188
1.992818	2270.178223
1.992930	2280.814453
1.993043	2340.962158
1.993156	2313.077637
1.993269	2529.947266
1.993381	2326.073242
1.993494	2273.463135
1.993607	2363.797363
1.993720	2338.679688
1.993832	2299.831787
1.993945	2442.315430
1.994058	2395.222412
1.994171	2273.992920
1.994284	2419.156982
1.994397	2462.691162
1.994510	2319.549316
1.994623	2313.683105
1.994736	2346.236572
1.994848	2373.291992
1.994962	2359.189697
1.995075	2364.291748
1.995188	2306.317871
1.995301	2377.232422
1.995414	2354.914307
1.995527	2335.344238
1.995640	2370.591797
1.995753	2318.143799
1.995866	2372.560547
1.995979	2325.607666
1.996092	2303.319092
1.996206	2300.206299
1.996319	2373.755371
1.996432	2203.647217
1.996545	2208.762939
1.996659	2315.129395
1.996772	2281.919434
1.996885	2347.204346
1.996999	2305.794189
1.997112	2349.175537
1.997225	2337.856201
1.997339	2337.475830
1.997452	2304.294189
1.997565	2355.846436
1.997679	2328.137695
1.997792	2335.955322
1.997906	2286.405273
1.998019	2332.464111
1.998133	2337.546143
1.998246	2268.907471
1.998360	2328.595947
1.998473	2336.405273
1.998587	2330.567139
1.998700	2322.002197
1.998814	2324.352539
1.998928	2373.072510
1.999041	2241.779541
1.999155	2345.032471
1.999269	2295.576660
1.999382	2322.462158
1.999496	2401.122314
1.999610	2250.855957
1.999724	2277.735352
1.999838	2231.054688
1.999951	2296.059814
2.000065	2366.490234
2.000179	2265.361816
2.000293	2292.216553
2.000407	2267.346436
2.000521	2220.712402
2.000635	2288.376465
2.000748	2309.768555
2.000862	2238.669189
2.000976	2281.819824
2.001091	2254.255859
2.001204	2281.076904
2.001318	2245.366943
2.001432	2329.256836
2.001547	2285.398193
2.001661	2290.460205
2.001775	2219.455811
2.001889	2303.295166
2.002003	2186.144775
2.002117	2321.552002
2.002231	2239.729492
2.002346	2231.221680
2.002460	2257.997803
2.002574	2214.214111
2.002688	2327.802002
2.002802	2232.481445
2.002917	2202.283936
2.003031	2248.024658
2.003145	2310.018311
2.003260	2214.762451
2.003374	2211.691406
2.003489	2230.301025
2.003603	2259.742676
2.003717	2281.047119
2.003832	2321.305420
2.003946	2272.179688
2.004061	2320.549316
2.004175	2298.512695
2.004290	2268.362793
2.004404	2197.625977
2.004519	2227.033936
2.004633	2248.315674
2.004748	2320.987549
2.004862	2215.127197
2.004977	2163.385986
2.005092	2184.663818
2.005206	2273.518555
2.005321	2224.495850
2.005436	2207.918457
2.005550	2250.791260
2.005665	2255.827881
2.005780	2185.230469
2.005895	2303.705566
2.006010	2176.417725
2.006124	2170.663330
2.006239	2170.309570
2.006354	2213.139160
2.006469	2218.175781
2.006584	2236.700684
2.006699	2220.150391
2.006814	2276.429688
2.006928	2251.788086
2.007043	2254.117432
2.007159	2264.533447
2.007273	2156.347168
2.007388	2253.015625
2.007504	2252.648438
2.007618	2246.893066
2.007734	2138.779785
2.007849	2151.897217
2.007964	2245.794434
2.008079	2202.350830
2.008194	2148.153320
2.008309	2188.175537
2.008425	2220.111328
2.008540	2149.793701
2.008655	2195.176025
2.008770	2248.612793
2.008885	2229.421143
2.009001	2239.813232
2.009116	2158.795654
2.009231	2153.067871
2.009346	2155.404297
2.009462	2203.420654
2.009577	2184.254883
2.009693	2226.878174
2.009808	2148.627441
2.009923	2180.501221
2.010039	2204.309814
2.010154	2222.741699
2.010270	2106.965820
2.010386	2181.762939
2.010501	2261.902100
2.010617	2194.465088
2.010732	2199.471924
2.010848	2110.612305
2.010963	2126.356445
2.011079	2158.181396
2.011194	2224.842773
2.011310	2101.195557
2.011426	2151.766357
2.011541	2113.906250
2.011657	2199.282715
2.011773	2107.860107
2.011889	2265.512939
2.012004	2182.141846
2.012120	2238.003662
2.012236	2200.166260
2.012352	2151.636230
2.012468	2161.988281
2.012583	2086.727295
2.012699	2169.307373
2.012815	2198.372070
2.012931	2152.555908
2.013047	2093.386719
2.013163	2114.429932
2.013279	2186.247314
2.013395	2188.562744
2.013511	2164.159424
2.013627	2190.520020
2.013743	2190.162598
2.013859	2109.690430
2.013975	2138.716797
2.014091	2146.376709
2.014208	2170.049072
2.014324	2183.038818
2.014440	2110.637939
2.014556	2222.344482
2.014672	2035.260742
2.014788	2050.930664
2.014905	2162.592041
2.015021	2060.925781
2.015137	2140.560547
2.015254	2108.228027
2.015370	2121.208008
2.015486	2174.149658
2.015603	2184.450684
2.015719	2125.496582
2.015835	2087.866211
2.015952	2148.766602
2.016068	2148.415771
2.016185	2060.226074
2.016301	2094.487305
2.016418	2001.013184
2.016534	2056.556641
2.016651	2173.263428
2.016767	2095.779541
2.016884	2161.916992
2.017000	2121.682861
2.017117	2123.994629
2.017234	2155.542480
2.017350	2072.809570
2.017467	2130.925537
2.017583	2050.880127
2.017700	2135.541992
2.017817	2145.816162
2.017934	2105.636475
2.018050	2107.947510
2.018167	1964.264893
2.018284	2101.950928
2.018401	2136.103760
2.018517	2061.467773
2.018634	2138.058838
2.018751	2150.970947
2.018868	2118.797852
2.018985	2068.075439
2.019102	2080.992432
2.019219	2027.642334
2.019336	2106.813477
2.019453	2109.119141
2.019570	2103.476074
2.019687	2047.508057
2.019804	2060.415283
2.019921	2052.135010
2.020038	2102.101807
2.020155	2136.170166
2.020272	2000.843628
2.020390	1995.224365
2.020507	2106.020020
2.020624	2060.705566
2.020741	2041.854492
2.020858	2118.210205
2.020976	2062.339600
2.021093	2011.774292
2.021210	2051.093018
2.021327	2135.325195
2.021445	1984.365234
2.021562	2108.208740
2.021679	2073.525391
2.021797	2096.955566
2.021914	2025.317505
2.022031	2009.145630
2.022149	2032.574707
2.022266	2040.160278
2.022384	2031.910278
2.022501	2065.877686
2.022619	1981.124512
2.022736	2067.839844
2.022854	2056.953369
2.022971	2038.160278
2.023089	1985.101929
2.023206	1892.523560
2.023324	2047.702515
2.023442	2034.192871
2.023559	1989.073242
2.023677	2001.918579
2.023795	2120.106689
2.023912	2009.163818
2.024030	2119.413330
2.024148	2090.110596
2.024266	1952.907471
2.024384	2055.217529
2.024501	1994.366333
2.024619	2057.176025
2.024737	2056.839600
2.024855	2035.464966
2.024973	2071.943359
2.025091	2013.767822
2.025208	2018.695435
2.025326	2112.976074
2.025445	1986.503418
2.025563	2080.758545
2.025681	2001.614380
2.025798	2022.297974
2.025917	1972.074463
2.026035	2040.015015
2.026153	1987.179810
2.026271	2007.851929
2.026389	1983.905640
2.026507	2022.937866
2.026625	2030.476929
2.026743	1988.177979
2.026861	2000.965210
2.026980	2026.858521
2.027098	1981.959106
2.027216	1994.740845
2.027334	2002.276855
2.027453	2012.430664
2.027571	1936.123657
2.027689	1935.806885
2.027808	1990.490479
2.027926	2026.825684
2.028044	1906.056519
2.028163	1960.718018
2.028281	1931.606201
2.028400	1962.693237
2.028518	1946.673096
2.028637	2032.684692
2.028755	1870.182373
2.028874	1882.952393
2.028992	1995.079956
2.029111	1952.923706
2.029229	1976.129395
2.029348	1978.419434
2.029467	1946.738770
2.029585	1962.095947
2.029704	1906.918213
2.029823	1903.994385
2.029941	1935.019043
2.030060	1958.200684
2.030179	1973.543091
2.030298	1897.527710
2.030416	2027.699707
2.030535	1988.229370
2.030654	1943.554321
2.030773	1901.502197
2.030892	1877.719360
2.031011	1968.674927
2.031129	1843.212280
2.031248	1962.817017
2.031367	1936.433228
2.031486	1969.991699
2.031605	1873.269897
2.031724	1992.791138
2.031843	1890.888184
2.031962	1942.660522
2.032081	1885.061523
2.032200	1858.720337
2.032319	1824.579224
2.032439	1964.809814
2.032557	1938.468262
2.032677	1899.127686
2.032796	1865.002075
2.032915	1955.720825
2.033034	1879.992676
2.033154	1890.084106
2.033273	1913.169189
2.033392	1782.906372
2.033511	1907.345337
2.033631	1849.873901
2.033750	1859.961670
2.033869	1901.213501
2.033989	1900.902100
2.034108	1879.819092
2.034227	1837.974976
2.034347	1923.328125
2.034466	1871.109741
2.034586	1839.666382
2.034705	1883.468262
2.034825	1857.220703
2.034944	1823.201416
2.035064	1838.460815
2.035183	1866.678345
2.035303	1843.042725
2.035423	1928.268677
2.035542	1883.900024
2.035662	1839.545776
2.035781	1898.825439
2.035901	1766.421143
2.036021	1908.561646
2.036140	1887.535156
2.036260	1897.580811
2.036380	1835.149170
2.036500	1816.732788
2.036619	1875.947754
2.036739	1893.749878
2.036859	1800.319458
2.036979	1898.301514
2.037099	1929.020142
2.037219	1900.264526
2.037339	1796.554199
2.037459	1824.689575
2.037578	1914.834717
2.037699	1886.100098
2.037818	1857.374756
2.037939	1725.344849
2.038059	1836.106323
2.038178	1830.641235
2.038299	1804.525269
2.038419	1724.213379
2.038539	1842.644409
2.038659	1819.119507
2.038779	1785.282593
2.038899	1823.681763
2.039020	1844.015015
2.039140	1730.253296
2.039260	1750.595093
2.039380	1688.441406
2.039500	1817.031982
2.039621	1814.156982
2.039741	1741.717285
2.039861	1810.985840
2.039982	1769.478149
2.040102	1792.364990
2.040222	1817.819092
2.040343	1832.967285
2.040463	1752.873413
2.040584	1834.939453
2.040704	1824.345825
2.040825	1795.746826
2.040945	1782.590698
2.041066	1787.442017
2.041186	1704.862671
2.041307	1822.849609
2.041427	1873.962402
2.041548	1783.698853
2.041668	1803.964233
2.041789	1824.222778
2.041910	1818.785522
2.042031	1738.864014
2.042151	1792.508057
2.042272	1745.996216
2.042393	1709.768677
2.042513	1848.095093
2.042634	1752.835815
2.042755	1819.262939
2.042876	1752.260498
2.042997	1841.751831
2.043118	1849.143555
2.043238	1810.375977
2.043359	1876.738892
2.043480	1820.035278
2.043601	1730.031128
2.043722	1837.375854
2.043843	1660.284668
2.043964	1806.031616
2.044085	1831.348389
2.044206	1802.877686
2.044327	1692.480835
2.044448	1779.245117
2.044569	1768.714355
2.044690	1791.456909
2.044812	1760.457153
2.044933	1767.843140
2.045054	1795.690430
2.045175	1828.643555
2.045296	1772.086548
2.045418	1679.754272
2.045539	1781.729614
2.045660	1783.992920
2.045781	1719.813843
2.045903	1803.847046
2.046024	1665.602173
2.046145	1685.762085
2.046267	1705.915283
2.046388	1779.682007
2.046510	1656.849243
2.046631	1751.019775
2.046753	1837.503174
2.046874	1765.754517
2.046995	1747.605713
2.047117	1788.131836
2.047239	1782.737183
2.047360	1723.794556
2.047482	1754.106079
2.047603	1692.638184
2.047725	1794.309448
2.047847	1768.531494
2.047968	1673.968628
2.048090	1785.782593
2.048212	1793.130371
2.048333	1782.649048
2.048455	1733.977905
2.048577	1771.880005
2.048699	1817.405762
2.048820	1753.482788
2.048942	1692.125366
2.049064	1648.597046
2.049186	1617.801514
2.049308	1739.613770
2.049430	1734.242065
2.049551	1749.211670
2.049674	1736.213989
2.049795	1662.221436
2.049917	1659.406982
2.050040	1694.705200
2.050161	1686.805420
2.050283	1706.847778
2.050405	1714.185669
2.050528	1731.677734
2.050650	1718.699463
2.050772	1748.876221
2.050894	1702.907104
2.051016	1702.627075
2.051138	1656.680542
2.051260	1661.481323
2.051383	1689.106323
2.051505	1688.828491
2.051627	1711.369019
2.051749	1776.996094
2.051872	1758.962158
2.051994	1626.899048
2.052116	1745.715088
2.052239	1661.829834
2.052361	1628.629272
2.052484	1681.542725
2.052606	1772.419067
2.052728	1615.167603
2.052851	1680.713013
2.052973	1677.905762
2.053096	1621.961670
2.053218	1611.575073
2.053341	1596.132813
2.053463	1611.044800
2.053586	1699.284180
2.053709	1719.230835
2.053831	1610.249756
2.053954	1597.347534
2.054076	1670.368652
2.054199	1619.561401
2.054322	1626.873535
2.054445	1712.482544
2.054567	1598.559082
2.054690	1663.944824
2.054813	1673.769043
2.054936	1660.873047
2.055058	1632.838867
2.055181	1609.860474
2.055304	1609.595459
2.055427	1634.555176
2.055550	1672.116821
2.055673	1651.668457
2.055796	1651.396606
2.055919	1641.041504
2.056042	1635.730591
2.056165	1562.382202
2.056288	1617.555176
2.056411	1662.633423
2.056534	1649.766113
2.056657	1657.049316
2.056780	1634.115479
2.056903	1689.230957
2.057026	1578.201904
2.057149	1688.674805
2.057273	1542.454834
2.057396	1602.580566
2.057519	1662.686523
2.057642	1624.687744
2.057765	1596.759766
2.057889	1553.755981
2.058012	1568.582642
2.058136	1711.584595
2.058259	1618.324463
2.058382	1608.007813
2.058506	1575.085693
2.058629	1660.223511
2.058753	1662.461304
2.058876	1601.926880
2.058999	1536.391479
2.059123	1573.788818
2.059246	1628.741089
2.059370	1578.288696
2.059494	1540.396851
2.059617	1540.143066
2.059741	1602.588379
2.059864	1672.535645
2.059988	1579.496094
2.060112	1531.608032
2.060235	1533.861938
2.060359	1636.351074
2.060483	1520.829102
2.060606	1608.255981
2.060730	1595.467651
2.060854	1530.094238
2.060978	1614.972412
2.061101	1629.726807
2.061225	1574.391968
2.061349	1544.101318
2.061473	1651.440674
2.061597	1556.101196
2.061721	1530.831177
2.061845	1588.100586
2.061969	1582.837646
2.062093	1542.574829
2.062217	1587.315308
2.062341	1569.558472
2.062465	1509.326538
2.062589	1539.059326
2.062713	1538.805664
2.062837	1588.504883
2.062961	1515.823120
2.063085	1630.427124
2.063210	1605.194092
2.063334	1572.481445
2.063458	1459.920532
2.063582	1547.010986
2.063706	1586.672241
2.063831	1534.029053
2.063955	1528.788208
2.064079	1578.406738
2.064204	1588.118896
2.064328	1505.597412
2.064452	1572.641235
2.064577	1544.971069
2.064701	1604.511597
2.064825	1611.720215
2.064950	1474.468262
2.065074	1519.049438
2.065199	1546.187012
2.065324	1523.527100
2.065448	1632.792358
2.065573	1498.138428
2.065697	1510.332153
2.065822	1597.155273
2.065946	1524.758057
2.066071	1497.149902
2.066195	1491.929810
2.066320	1496.655884
2.066445	1506.351807
2.066570	1553.324219
2.066694	1545.613159
2.066819	1595.048096
2.066944	1512.809937
2.067069	1520.011353
2.067194	1497.411011
2.067318	1541.855347
2.067443	1514.293945
2.067568	1501.633789
2.067693	1496.422607
2.067818	1511.062866
2.067943	1483.524536
2.068068	1503.122925
2.068193	1473.114868
2.068318	1544.779541
2.068443	1534.607788
2.068568	1467.427856
2.068693	1521.709351
2.068818	1514.024292
2.068943	1427.060547
2.069068	1501.138672
2.069193	1453.833130
2.069319	1465.974609
2.069444	1463.256714
2.069569	1537.279785
2.069694	1475.148804
2.069819	1494.702637
2.069945	1474.661621
2.070070	1509.052002
2.070195	1476.647949
2.070321	1503.607544
2.070446	1572.592773
2.070571	1527.833130
2.070697	1446.010864
2.070822	1522.385620
2.070948	1490.011108
2.071073	1507.059082
2.071199	1425.294189
2.071324	1484.333252
2.071450	1503.842896
2.071575	1461.622192
2.071701	1481.129150
2.071826	1448.798584
2.071952	1460.897827
2.072078	1492.731689
2.072203	1499.885742
2.072329	1425.642578
2.072454	1516.652832
2.072580	1499.142334
2.072706	1513.686279
2.072832	1498.646851
2.072958	1414.607056
2.073083	1419.301392
2.073209	1460.949097
2.073335	1426.222046
2.073461	1458.003296
2.073587	1430.675537
2.073713	1482.141602
2.073838	1425.279297
2.073964	1457.039429
2.074090	1498.632324
2.074217	1417.191284
2.074342	1451.396973
2.074469	1431.480347
2.074594	1391.896729
2.074721	1438.383301
2.074847	1425.853638
2.074973	1469.861206
2.075099	1359.028198
2.075225	1403.032104
2.075351	1439.651245
2.075477	1481.170898
2.075603	1485.837769
2.075730	1448.759155
2.075856	1392.051880
2.075982	1416.368774
2.076109	1470.129272
2.076235	1364.368408
2.076361	1440.201050
2.076488	1427.697388
2.076614	1437.271973
2.076741	1434.581909
2.076867	1348.529175
2.076993	1421.849976
2.077120	1477.989136
2.077246	1448.336792
2.077373	1445.646973
2.077499	1386.611450
2.077626	1486.809082
2.077753	1427.786255
2.077879	1420.204102
2.078006	1336.729492
2.078132	1456.451416
2.078259	1429.288818
2.078386	1453.522461
2.078512	1306.485718
2.078639	1440.810425
2.078766	1484.596191
2.078892	1474.568970
2.079019	1418.090210
2.079146	1444.745850
2.079273	1388.290771
2.079400	1346.516846
2.079527	1407.378174
2.079654	1424.245850
2.079780	1421.567505
2.079907	1367.604858
2.080034	1408.888184
2.080161	1481.895264
2.080288	1322.988892
2.080415	1359.377808
2.080542	1395.754761
2.080669	1363.807129
2.080796	1353.824097
2.080923	1399.939331
2.081050	1341.183228
2.081177	1340.961060
2.081305	1404.119385
2.081432	1381.951172
2.081559	1347.605713
2.081686	1393.675903
2.081814	1330.106689
2.081941	1317.707886
2.082068	1444.124512
2.082195	1339.185425
2.082323	1433.908325
2.082450	1292.494385
2.082577	1384.759766
2.082705	1406.429810
2.082832	1401.331055
2.082960	1381.639282
2.083087	1332.769165
2.083215	1488.174438
2.083342	1402.833984
2.083470	1402.601563
2.083597	1419.382202
2.083724	1343.815674
2.083852	1316.866821
2.083980	1331.224121
2.084107	1345.576538
2.084235	1338.068237
2.084363	1398.547363
2.084490	1403.170776
2.084618	1351.966431
2.084746	1337.181396
2.084874	1319.974854
2.085001	1324.608032
2.085129	1314.686035
2.085257	1382.374268
2.085385	1367.596191
2.085513	1386.764771
2.085641	1325.934570
2.085768	1342.680054
2.085896	1395.768066
2.086024	1385.845337
2.086152	1346.857178
2.086280	1344.211792
2.086408	1360.940186
2.086536	1341.344849
2.086664	1336.280884
2.086792	1331.218506
2.086920	1369.717651
2.087049	1284.804688
2.087177	1405.551392
2.087305	1310.985352
2.087433	1376.064453
2.087561	1373.418213
2.087689	1305.497925
2.087818	1334.287720
2.087946	1384.818970
2.088074	1312.097656
2.088202	1323.959839
2.088331	1304.415649
2.088459	1371.824341
2.088587	1328.130737
2.088716	1267.550781
2.088844	1303.550171
2.088973	1259.889526
2.089101	1310.357300
2.089230	1334.267578
2.089358	1213.427246
2.089487	1372.416504
2.089615	1304.664551
2.089744	1326.148682
2.089872	1313.874756
2.090001	1287.142578
2.090129	1248.369263
2.090258	1334.906860
2.090387	1238.318237
2.090515	1336.872681
2.090644	1312.566895
2.090773	1266.597412
2.090901	1280.832642
2.091030	1290.248779
2.091159	1345.390625
2.091288	1316.290649
2.091417	1260.734497
2.091546	1291.797852
2.091674	1281.962646
2.091803	1296.178467
2.091932	1295.963257
2.092061	1300.556030
2.092190	1333.990356
2.092319	1249.657227
2.092448	1290.297119
2.092577	1292.485352
2.092706	1316.290527
2.092835	1292.056030
2.092964	1282.236694
2.093093	1284.424561
2.093223	1320.217163
2.093352	1298.397949
2.093481	1295.782593
2.093610	1297.966553
2.093739	1290.554565
2.093868	1321.519409
2.093998	1194.205688
2.094127	1205.995361
2.094256	1311.272095
2.094386	1222.372314
2.094515	1234.151367
2.094645	1224.362305
2.094774	1267.279907
2.094903	1298.207153
2.095033	1250.095093
2.095162	1245.098511
2.095292	1276.013916
2.095421	1290.163574
2.095551	1222.938843
2.095680	1244.270996
2.095810	1203.392944
2.095939	1267.777832
2.096069	1202.992920
2.096198	1303.224976
2.096328	1310.180908
2.096458	1166.536499
2.096588	1233.263916
2.096717	1213.941772
2.096847	1232.854004
2.096977	1215.927002
2.097106	1258.717163
2.097236	1222.686890
2.097366	1210.545288
2.097496	1217.505859
2.097626	1279.362061
2.097756	1150.279785
2.097886	1207.354370
2.098016	1252.481445
2.098145	1237.961548
2.098275	1237.755615
2.098405	1182.706543
2.098536	1180.125732
2.098665	1246.672974
2.098796	1229.782593
2.098926	1243.875488
2.099056	1265.111084
2.099186	1236.315308
2.099316	1290.889160
2.099446	1193.040405
2.099576	1147.604370
2.099707	1273.581299
